# Output from "simple" SuperMix based program
# Scanning BIAS from 0.010000 to 5.000000 mVolt in steps of 0.010000 mVolt
#
# FREQUENCY 13.400000 GHz
# BIAS 0.000000 mV
# LO_POWER 80.000000 Vs
#
# Data from mixer.conf
#
# TEMP 2.500000 K
# Z0 20.000000 Ohms
# IF_FREQ 1.400000 GHz
# IF_Z0 50.000000 Ohms
# HARMONICS 20
#
# IV_CURVE unpump.IV
# KK_CURVE unpump.KK
# RNA 20.000000 Ohm*um^2
# SCAP 65.000000 fF/um^2
# AREA 1.000000 um^2
# VGAP 2.820000 mV
#
# TUNER_TYPE SINGLE_STUB
# SINGLE_STUB_TYPE STRAIGHT
# SINGLE_STUB_INPUT 44.000000 3.000000 3.000000
# SINGLE_STUB_FAN 60.000000 180.000000
#
# TOP_DEFAULT NB
# TOP_THICKNESS 4000.000000
# GROUND_DEFAULT NB
# GROUND_THICKNESS 4000.000000
# INSUL_DEFAULT SIO
# INSUL_THICKNESS 4000.000000
# COVER_DEFAULT AIR
# COVER_THICKNESS 100000.000000
#
# NB_PROPERTIES 3.050000 9.400000 5.000000
# NBTIN_PROPERTIES 5.000000 15.750000 30.000000
# SIO_PROPERTIES 5.800000 0.000000
# AIR_PROPERTIES 1.000000 0.000000
#
# End of configuration file data
# 
# building the mixer...
# building tuner...
# tuner complete
# building IV curves...
# IV curves complete
# built mixer
# Junction Embedding Impedance : 0.328507+-0.469669i
# Junction IF Embedding Impedance : 0.421119+-0.493738i
# Junction LSB Embedding Impedance : 0.378321+-0.484968i
# Junction USB Embedding Impedance : 0.285643+-0.451719i
# Results:
#
# BIAS (mVolt)| LSB Gain | USB Gain | IF Output 0K (K)| IF Output 77K (K)| IF Output 297K (K)| DC Current (uA)
0.010000      0.008690      0.008885      0.045843      1.110873      4.186989      1.077349
0.020000      0.009081      0.009281      0.050789      1.224167      4.613239      2.114755
0.030000      0.009059      0.009261      0.052081      1.246275      4.695492      3.109577
0.040000      0.008625      0.008804      0.048641      1.153267      4.343860      4.110396
0.050000      0.008165      0.008320      0.046092      1.080285      4.067467      5.159775
0.060000      0.007972      0.008131      0.047221      1.088210      4.095091      6.198583
0.070000      0.008109      0.008239      0.052520      1.186053      4.460359      7.203226
0.080000      0.008113      0.008198      0.057232      1.259880      4.733958      8.130506
0.090000      0.007668      0.007727      0.056110      1.197529      4.494945      9.037147
0.100000      0.006995      0.007035      0.052015      1.072312      4.020060      9.963946
0.110000      0.006580      0.006626      0.053138      1.049328      3.927668      10.896333
0.120000      0.006373      0.006386      0.057695      1.083998      4.049701      11.797213
0.130000      0.006470      0.006381      0.070171      1.243474      4.634401      12.618905
0.140000      0.006078      0.005949      0.074645      1.233436      4.582978      13.378047
0.150000      0.005497      0.005309      0.073051      1.116905      4.134857      14.129816
0.160000      0.004899      0.004738      0.074415      1.032418      3.802910      14.892446
0.170000      0.004436      0.004307      0.081340      1.010877      3.699961      15.628102
0.180000      0.004331      0.004133      0.101426      1.128817      4.102116      16.322142
0.190000      0.004221      0.003905      0.129023      1.262980      4.546212      16.916207
0.200000      0.003738      0.003385      0.138243      1.177838      4.189636      17.480718
0.210000      0.003282      0.002889      0.148520      1.088627      3.814216      18.039892
0.220000      0.002870      0.002538      0.167407      1.038205      3.565249      18.581502
0.230000      0.002580      0.002289      0.195083      1.029086      3.452093      19.102868
0.240000      0.002670      0.002310      0.278335      1.278113      4.186122      19.567187
0.250000      0.002678      0.002238      0.338885      1.360895      4.337524      19.964018
0.260000      0.002649      0.002124      0.378470      1.334636      4.123843      20.352047
0.270000      0.002672      0.002044      0.439915      1.374260      4.104585      20.720972
0.280000      0.002631      0.002002      0.487492      1.366086      3.938295      21.075596
0.290000      0.002779      0.002138      0.595106      1.525153      4.252927      21.421352
0.300000      0.003070      0.002380      0.784686      1.894802      5.155227      21.716267
0.310000      0.003159      0.002398      0.861756      1.982206      5.277201      21.988026
0.320000      0.003265      0.002389      0.949269      2.097575      5.478407      22.250664
0.330000      0.003288      0.002334      0.977172      2.091189      5.374237      22.504747
0.340000      0.003288      0.002261      1.001173      2.085401      5.283414      22.757679
0.350000      0.003313      0.002307      1.065101      2.178046      5.462624      23.002604
0.360000      0.003298      0.002414      1.084163      2.214051      5.548336      23.237273
0.370000      0.003321      0.002485      1.035422      2.142024      5.405291      23.469485
0.380000      0.003324      0.002603      0.873457      1.886630      4.868448      23.708998
0.390000      0.003529      0.002908      0.771139      1.824661      4.914277      23.968710
0.400000      0.003932      0.003272      0.713024      1.920947      5.449560      24.224845
0.410000      0.004133      0.003504      0.592406      1.870469      5.590938      24.486754
0.420000      0.004458      0.003858      0.506385      1.966969      6.204958      24.766392
0.430000      0.004624      0.004031      0.370685      1.851407      6.136327      25.059729
0.440000      0.004787      0.004256      0.268450      1.814499      6.278679      25.408152
0.450000      0.005402      0.004819      0.241287      2.208379      7.879659      25.771831
0.460000      0.005988      0.005266      0.219465      2.628194      9.566053      26.137550
0.470000      0.006303      0.005534      0.197213      2.893875      10.656622      26.517618
0.480000      0.006473      0.005665      0.175828      3.017885      11.196112      26.903041
0.490000      0.006207      0.005482      0.140659      2.727651      10.170115      27.342806
0.500000      0.006482      0.005808      0.140017      2.936747      10.981209      27.822863
0.510000      0.006974      0.006331      0.147639      3.270029      12.250254      28.294128
0.520000      0.007535      0.006846      0.159980      3.661420      13.731072      28.757079
0.530000      0.007854      0.007185      0.164929      3.837164      14.397495      29.210151
0.540000      0.007603      0.007037      0.144724      3.396008      12.745794      29.673219
0.550000      0.007697      0.007207      0.140889      3.278086      12.299893      30.163119
0.560000      0.008134      0.007718      0.150274      3.396301      12.731462      30.631059
0.570000      0.008851      0.008448      0.170925      3.676486      13.758885      31.079847
0.580000      0.009410      0.008999      0.194494      3.842885      14.337552      31.483535
0.590000      0.009268      0.008913      0.196756      3.457626      12.839656      31.867762
0.600000      0.009164      0.008827      0.211158      3.143657      11.583803      32.263176
0.610000      0.009310      0.009027      0.255954      3.069923      11.173079      32.634685
0.620000      0.009549      0.009308      0.321729      3.073585      11.003457      32.982080
0.630000      0.010625      0.010266      0.492694      3.710399      12.991219      33.282651
0.640000      0.010383      0.009989      0.603984      3.549924      12.057985      33.546234
0.650000      0.009930      0.009446      0.727518      3.334393      10.877026      33.807368
0.660000      0.009687      0.009146      0.966177      3.475049      10.752420      34.043808
0.670000      0.008937      0.008429      1.163180      3.404800      9.927260      34.266138
0.680000      0.008746      0.008312      1.549795      3.917521      10.828288      34.481031
0.690000      0.009008      0.008515      2.133459      4.925252      13.093786      34.651337
0.700000      0.008536      0.007980      2.444301      5.249552      13.477068      34.813029
0.710000      0.008198      0.007598      2.858062      5.843896      14.617234      34.964467
0.720000      0.007712      0.007168      3.078703      6.105809      15.011078      35.107555
0.730000      0.007221      0.006835      3.196417      6.197263      15.033394      35.249861
0.740000      0.006974      0.006860      3.210019      6.180665      14.929822      35.392830
0.750000      0.007233      0.007218      3.136446      6.141321      14.983475      35.537071
0.760000      0.007514      0.007595      2.890574      5.832910      14.478939      35.681891
0.770000      0.007712      0.007793      2.342917      5.043356      12.958009      35.839710
0.780000      0.008157      0.008246      2.019803      4.826193      13.023337      36.015903
0.790000      0.008514      0.008539      1.669353      4.563948      12.990959      36.194262
0.800000      0.008394      0.008419      1.226064      3.934584      11.797411      36.398849
0.810000      0.008544      0.008521      0.950669      3.746505      11.841620      36.622042
0.820000      0.008101      0.008064      0.602304      3.084167      10.254255      36.878990
0.830000      0.008096      0.008064      0.430202      2.985061      10.353235      37.195640
0.840000      0.008607      0.008518      0.357537      3.339069      11.927913      37.525251
0.850000      0.009041      0.008820      0.305869      3.674649      13.372294      37.870818
0.860000      0.009301      0.009017      0.273100      3.886393      14.284063      38.234371
0.870000      0.008984      0.008676      0.219404      3.535402      13.075625      38.611424
0.880000      0.008660      0.008389      0.185634      3.203146      11.883838      39.048219
0.890000      0.008939      0.008674      0.189230      3.300518      12.250970      39.494561
0.900000      0.009459      0.009172      0.205402      3.510410      13.018809      39.938667
0.910000      0.010274      0.009847      0.249927      3.941004      14.561766      40.340236
0.920000      0.010139      0.009703      0.262804      3.654677      13.417141      40.718114
0.930000      0.009827      0.009413      0.277763      3.228799      11.726290      41.109054
0.940000      0.009912      0.009540      0.341443      3.101926      11.056584      41.479614
0.950000      0.009856      0.009565      0.412605      2.878314      9.991179      41.829503
0.960000      0.011136      0.010733      0.635129      3.478823      11.692926      42.150684
0.970000      0.011921      0.011401      0.874167      3.829425      12.380216      42.410822
0.980000      0.011934      0.011377      1.060345      3.757252      11.577997      42.662952
0.990000      0.012347      0.011738      1.390494      4.074444      11.879088      42.890731
1.000000      0.012108      0.011566      1.618101      4.065495      11.204042      43.105061
1.010000      0.012084      0.011665      1.896566      4.240644      11.099045      43.316968
1.020000      0.012851      0.012423      2.320714      4.910184      12.500079      43.507353
1.030000      0.013203      0.012686      2.516165      5.192846      13.045412      43.685240
1.040000      0.013493      0.012913      2.646308      5.435287      13.618578      43.857692
1.050000      0.013428      0.012780      2.535080      5.324059      13.499937      44.030282
1.060000      0.013357      0.012701      2.429794      5.281312      13.629485      44.205976
1.070000      0.012519      0.011928      2.040166      4.641185      12.244425      44.386791
1.080000      0.011844      0.011332      1.691085      4.155181      11.342657      44.594687
1.090000      0.011330      0.010884      1.393628      3.837516      10.948057      44.808745
1.100000      0.010274      0.009879      0.976343      3.211387      9.695508      45.057669
1.110000      0.010020      0.009726      0.792531      3.260436      10.401598      45.341871
1.120000      0.009997      0.009801      0.672469      3.529929      11.782366      45.632461
1.130000      0.009609      0.009406      0.549494      3.543212      12.178826      45.937933
1.140000      0.009137      0.009013      0.468782      3.506928      12.264499      46.264884
1.150000      0.008203      0.008077      0.351297      2.979537      10.551982      46.621890
1.160000      0.007825      0.007754      0.315011      2.838113      10.106007      47.021129
1.170000      0.007764      0.007784      0.315391      2.856114      10.174538      47.420700
1.180000      0.008283      0.008375      0.374625      3.264480      11.589525      47.817574
1.190000      0.008784      0.008829      0.462082      3.602479      12.652622      48.163532
1.200000      0.008498      0.008478      0.488323      3.255964      11.237007      48.499402
1.210000      0.008416      0.008301      0.574660      3.102388      10.399429      48.839175
1.220000      0.008246      0.008120      0.688338      2.952197      9.497836      49.158941
1.230000      0.008162      0.008071      0.829263      2.892930      8.871782      49.470957
1.240000      0.008994      0.008940      1.216814      3.674074      10.806743      49.746874
1.250000      0.009145      0.009027      1.438523      3.913650      11.110868      49.984993
1.260000      0.009275      0.009033      1.696495      4.227783      11.601552      50.216864
1.270000      0.009174      0.008848      1.905523      4.461645      11.918626      50.428000
1.280000      0.008707      0.008374      1.981517      4.419603      11.540941      50.639222
1.290000      0.008193      0.007852      1.954344      4.213533      10.818519      50.851717
1.300000      0.008011      0.007779      1.867992      4.071931      10.513166      51.072231
1.310000      0.008330      0.007999      1.780478      4.043911      10.651417      51.292779
1.320000      0.008631      0.008182      1.492238      3.695746      10.115102      51.523188
1.330000      0.009367      0.008795      1.288997      3.637467      10.461924      51.776960
1.340000      0.010452      0.009640      1.161807      3.807174      11.477527      52.030632
1.350000      0.010822      0.009827      0.930130      3.511295      10.983493      52.297355
1.360000      0.011242      0.010150      0.795632      3.384114      10.869009      52.594301
1.370000      0.011121      0.009961      0.606789      2.925546      9.624182      52.907479
1.380000      0.011236      0.010107      0.501912      2.692083      9.014801      53.269743
1.390000      0.012009      0.010860      0.488778      2.803706      9.483783      53.638863
1.400000      0.013282      0.012007      0.525581      3.129900      10.643385      54.010471
1.410000      0.014693      0.013282      0.617903      3.498056      11.808940      54.344384
1.420000      0.014840      0.013443      0.630506      3.218592      10.690596      54.667692
1.430000      0.015108      0.013831      0.677311      2.967071      9.584032      55.005530
1.440000      0.015733      0.014680      0.786576      2.867795      8.890876      55.329659
1.450000      0.016351      0.015466      0.895848      2.758905      8.160481      55.646354
1.460000      0.018962      0.018202      1.260370      3.447868      9.800634      55.939569
1.470000      0.020478      0.019708      1.506066      3.824178      10.565088      56.188290
1.480000      0.021368      0.020642      1.688954      4.022952      10.819031      56.433230
1.490000      0.021681      0.021184      1.816818      4.149384      10.947817      56.660575
1.500000      0.021181      0.020835      1.822341      4.056470      10.571736      56.893516
1.510000      0.020221      0.020112      1.746826      3.827714      9.898325      57.128085
1.520000      0.018723      0.018932      1.555769      3.498416      9.162103      57.378198
1.530000      0.017666      0.018075      1.428937      3.435449      9.276533      57.636073
1.540000      0.015576      0.016342      1.148887      3.104908      8.787020      57.908504
1.550000      0.013838      0.014897      0.956496      3.045225      9.098961      58.212078
1.560000      0.012625      0.014002      0.866330      3.270862      10.227370      58.517877
1.570000      0.011009      0.012574      0.745632      3.241041      10.452017      58.832873
1.580000      0.009505      0.011173      0.670052      3.124698      10.214011      59.170741
1.590000      0.007764      0.009488      0.564813      2.742273      9.029163      59.518372
1.600000      0.006340      0.008086      0.520102      2.490516      8.179671      59.909218
1.610000      0.005413      0.007163      0.565249      2.541669      8.249889      60.294951
1.620000      0.004747      0.006546      0.678405      2.827482      9.037112      60.671643
1.630000      0.004329      0.005952      0.958086      3.539778      11.005416      60.987699
1.640000      0.003330      0.004620      1.069413      3.429396      10.262203      61.277712
1.650000      0.002582      0.003519      1.242241      3.412971      9.708677      61.567098
1.660000      0.002636      0.003118      1.422897      3.376823      9.056082      61.838617
1.670000      0.003459      0.003667      1.546660      3.261639      8.258175      62.107190
1.680000      0.004724      0.004942      1.825423      3.596550      8.765421      62.369208
1.690000      0.005947      0.006031      2.017150      3.951639      9.598097      62.607315
1.700000      0.006831      0.006990      2.060715      4.094022      10.026621      62.842756
1.710000      0.007354      0.007612      1.897763      3.959811      9.968638      63.073787
1.720000      0.007817      0.008000      1.704352      3.827477      10.003895      63.323895
1.730000      0.008189      0.008327      1.510669      3.692068      10.027928      63.576653
1.740000      0.008030      0.008097      1.155995      3.091495      8.705464      63.855759
1.750000      0.008313      0.008259      0.983811      2.930723      8.570067      64.167020
1.760000      0.008064      0.007929      0.728369      2.488684      7.580746      64.504435
1.770000      0.008332      0.008036      0.616659      2.418922      7.626696      64.887561
1.780000      0.008949      0.008529      0.594640      2.580477      8.314934      65.272050
1.790000      0.010030      0.009341      0.652527      2.951286      9.587736      65.653953
1.800000      0.010801      0.010134      0.736455      3.120317      10.005011      66.005499
1.810000      0.010893      0.010280      0.751811      2.828375      8.830365      66.351234
1.820000      0.011191      0.010732      0.830012      2.627867      7.831750      66.708995
1.830000      0.011704      0.011415      0.961651      2.559754      7.194433      67.053140
1.840000      0.012546      0.012351      1.152122      2.673157      7.093624      67.388555
1.850000      0.014580      0.014381      1.613406      3.465677      8.856574      67.681104
1.860000      0.015180      0.014985      1.798174      3.715641      9.301111      67.940336
1.870000      0.015624      0.015471      1.979245      3.986487      9.836954      68.193302
1.880000      0.015143      0.015114      1.948856      3.901845      9.594738      68.437075
1.890000      0.014448      0.014523      1.882820      3.779537      9.307403      68.690320
1.900000      0.013124      0.013386      1.652008      3.363870      8.350845      68.950202
1.910000      0.011665      0.012075      1.368380      2.937043      7.501234      69.242478
1.920000      0.010548      0.011133      1.185995      2.779009      7.406200      69.545292
1.930000      0.008979      0.009756      0.917209      2.472782      6.982005      69.881874
1.940000      0.008050      0.008975      0.819553      2.580777      7.677378      70.245794
1.950000      0.007247      0.008367      0.774940      2.800651      8.655769      70.607843
1.960000      0.006528      0.007655      0.787605      3.005884      9.414822      70.967764
1.970000      0.005630      0.006639      0.795206      2.903435      8.995900      71.325559
1.980000      0.004613      0.005355      0.747988      2.492455      7.537036      71.694857
1.990000      0.004027      0.004319      0.818859      2.354996      6.802880      72.075475
2.000000      0.003623      0.003529      0.931229      2.324176      6.364089      72.443335
2.010000      0.003656      0.003163      1.219770      2.738349      7.149603      72.798296
2.020000      0.003809      0.003153      1.667225      3.524572      8.925633      73.084321
2.030000      0.003795      0.002969      1.835072      3.702166      9.136853      73.354758
2.040000      0.003827      0.002947      2.011788      3.916029      9.463185      73.611316
2.050000      0.003637      0.002907      1.943894      3.704929      8.837198      73.871085
2.060000      0.003555      0.003015      1.891511      3.553528      8.398565      74.134865
2.070000      0.003182      0.002959      1.614192      3.056126      7.258487      74.411162
2.080000      0.002806      0.002756      1.428563      2.864003      7.041477      74.718705
2.090000      0.002450      0.002558      1.189792      2.622064      6.782588      75.034410
2.100000      0.002491      0.002459      0.960280      2.448069      6.760609      75.387470
2.110000      0.003098      0.002825      0.888252      2.612535      7.602706      75.753592
2.120000      0.003977      0.003356      0.848601      2.812575      8.490651      76.123944
2.130000      0.004692      0.004031      0.848728      2.841451      8.602152      76.488848
2.140000      0.005177      0.004590      0.831196      2.613231      7.767368      76.852485
2.150000      0.005543      0.005156      0.807224      2.265396      6.487308      77.242445
2.160000      0.006263      0.006089      0.909398      2.216456      6.007105      77.630768
2.170000      0.007084      0.007007      1.036329      2.242484      5.747032      78.006863
2.180000      0.008798      0.008691      1.465176      2.941168      7.235900      78.351668
2.190000      0.009863      0.009760      1.746663      3.392551      8.185204      78.641402
2.200000      0.010493      0.010440      1.913761      3.625987      8.614842      78.924560
2.210000      0.010634      0.010720      1.934472      3.620967      8.536219      79.190967
2.220000      0.010442      0.010602      1.847358      3.444921      8.100977      79.472309
2.230000      0.010013      0.010316      1.687359      3.157766      7.442476      79.758173
2.240000      0.009179      0.009513      1.359294      2.620778      6.293870      80.075135
2.250000      0.008822      0.009150      1.201399      2.465133      6.139590      80.416303
2.260000      0.008090      0.008402      0.943599      2.151059      5.655497      80.785584
2.270000      0.007944      0.008117      0.847830      2.191447      6.084477      81.186575
2.280000      0.007995      0.008068      0.821067      2.353849      6.790119      81.583511
2.290000      0.008471      0.008304      0.911163      2.711618      7.920698      81.973799
2.300000      0.008669      0.008353      1.008894      2.814492      8.041443      82.337032
2.310000      0.008425      0.007952      1.023148      2.561003      7.018087      82.698338
2.320000      0.008303      0.007648      1.102217      2.379589      6.089361      83.068781
2.330000      0.008230      0.007537      1.220483      2.319629      5.519606      83.434518
2.340000      0.008495      0.007748      1.424103      2.479522      5.559159      83.795309
2.350000      0.009084      0.008442      1.777159      3.021017      6.652935      84.114058
2.360000      0.009039      0.008472      1.863794      3.212116      7.147292      84.413430
2.370000      0.008841      0.008332      1.909642      3.405864      7.768198      84.704865
2.380000      0.008034      0.007599      1.733461      3.262377      7.713729      84.999810
2.390000      0.007233      0.006912      1.619460      3.217031      7.862382      85.303473
2.400000      0.005957      0.005749      1.321519      2.766335      6.963179      85.620614
2.410000      0.004792      0.004605      1.088709      2.372184      6.097704      85.985612
2.420000      0.003746      0.003608      0.924594      2.091833      5.477926      86.365321
2.430000      0.002781      0.002657      0.787867      1.857519      4.958785      86.798107
2.440000      0.002142      0.002030      0.816679      1.970239      5.313839      87.235134
2.450000      0.001635      0.001543      0.915082      2.222691      6.012668      87.660185
2.460000      0.001528      0.001283      1.266480      2.942058      7.801240      88.031763
2.470000      0.001712      0.001306      1.414609      3.054102      7.813705      88.362833
2.480000      0.002208      0.001851      1.556927      3.077865      7.500097      88.690846
2.490000      0.002804      0.002683      1.619095      2.921266      6.714984      89.010607
2.500000      0.003423      0.003449      1.667158      2.793735      6.082525      89.336989
2.510000      0.003824      0.004080      1.680761      2.701713      5.686182      89.666422
2.520000      0.003892      0.004235      1.601281      2.619255      5.593008      90.003003
2.530000      0.003883      0.004300      1.506751      2.596848      5.775909      90.341797
2.540000      0.003876      0.004184      1.312073      2.499542      5.953920      90.694678
2.550000      0.004186      0.004249      1.201208      2.575760      6.565607      91.063675
2.560000      0.004731      0.004469      1.122842      2.687911      7.223824      91.432197
2.570000      0.005269      0.004750      1.068553      2.667693      7.300021      91.807889
2.580000      0.005575      0.005090      1.052826      2.516580      6.758707      92.192131
2.590000      0.005657      0.005226      0.966715      2.130522      5.507016      92.592644
2.600000      0.005946      0.005692      1.005981      1.981454      4.816786      93.013573
2.610000      0.006473      0.006307      1.110332      1.994190      4.568383      93.427582
2.620000      0.007537      0.007399      1.398542      2.378175      5.235463      93.827284
2.630000      0.008786      0.008606      1.760111      2.983488      6.551964      94.161911
2.640000      0.009333      0.009117      1.866331      3.205262      7.109369      94.481683
2.650000      0.009622      0.009361      1.906417      3.360146      7.595835      94.786941
2.660000      0.009316      0.009027      1.759053      3.192355      7.365189      95.103630
2.670000      0.008961      0.008699      1.640521      3.054648      7.168890      95.424772
2.680000      0.007962      0.007672      1.299153      2.468406      5.868645      95.770220
2.690000      0.007391      0.007075      1.145295      2.206981      5.293327      96.165563
2.700000      0.006682      0.006358      0.940091      1.849795      4.493298      96.580761
2.710000      0.006434      0.006062      0.873950      1.766357      4.358385      97.041787
2.720000      0.006581      0.006190      0.924825      1.906816      4.758177      97.492756
2.730000      0.007195      0.006745      1.127428      2.338384      5.854343      97.928547
2.740000      0.008101      0.007554      1.518208      3.050784      7.502760      98.286423
2.750000      0.008143      0.007527      1.642767      3.145033      7.512817      98.621645
2.760000      0.008058      0.007267      1.770171      3.181565      7.290458      98.948678
2.770000      0.007450      0.006603      1.733129      2.920023      6.380806      99.282116
2.780000      0.006907      0.006023      1.738417      2.773531      5.796552      99.621559
2.790000      0.005990      0.005210      1.564365      2.434427      4.977520      99.972669
2.800000      0.005088      0.004475      1.427317      2.274062      4.746758      100.356323
2.810000      0.004147      0.003665      1.257173      2.118269      4.628505      100.746353
2.820000      0.003171      0.002928      1.123228      2.093740      4.916086      101.164615
2.830000      0.002400      0.002354      1.102521      2.273770      5.673703      101.581458
2.840000      0.001677      0.001885      1.138916      2.540349      6.603988      101.994753
2.850000      0.001241      0.001396      1.295858      2.839196      7.315221      102.377346
2.860000      0.000973      0.000954      1.333383      2.714946      6.725961      102.746655
2.870000      0.001136      0.000968      1.333464      2.445704      5.680922      103.129169
2.880000      0.001615      0.001574      1.364168      2.245827      4.817171      103.523009
2.890000      0.002151      0.002235      1.446117      2.198330      4.398075      103.918992
2.900000      0.002570      0.002844      1.599736      2.353343      4.560097      104.307912
2.910000      0.002801      0.003088      1.631559      2.460050      4.883421      104.684082
2.920000      0.003038      0.003341      1.589746      2.525912      5.258902      105.055482
2.930000      0.003477      0.003562      1.480590      2.571136      5.746630      105.428261
2.940000      0.004019      0.003891      1.402883      2.663598      6.327370      105.807972
2.950000      0.004610      0.004202      1.312026      2.694086      6.705097      106.189814
2.960000      0.004932      0.004380      1.233510      2.538064      6.323919      106.583276
2.970000      0.005007      0.004494      1.200167      2.321462      5.578608      106.985386
2.980000      0.004849      0.004422      1.090563      1.927780      4.364169      107.415913
2.990000      0.004899      0.004641      1.119907      1.799769      3.783298      107.869876
3.000000      0.005182      0.005018      1.213400      1.824828      3.612977      108.319593
3.010000      0.005955      0.005869      1.511312      2.217630      4.285397      108.748955
3.020000      0.006719      0.006586      1.708317      2.569516      5.088065      109.128022
3.030000      0.007185      0.007019      1.762582      2.768073      5.703941      109.495772
3.040000      0.007436      0.007172      1.727172      2.888624      6.273248      109.849456
3.050000      0.007357      0.007034      1.626156      2.879695      6.527214      110.213322
3.060000      0.007079      0.006712      1.489985      2.769208      6.487471      110.580241
3.070000      0.006432      0.005921      1.265407      2.358199      5.534281      110.975395
3.080000      0.005890      0.005329      1.188908      2.113483      4.803049      111.399392
3.090000      0.005170      0.004514      1.021062      1.704554      3.695898      111.855785
3.100000      0.004783      0.004116      1.026439      1.607304      3.302963      112.346785
3.110000      0.004622      0.003985      1.113472      1.671810      3.304347      112.829465
3.120000      0.004904      0.004340      1.432334      2.120774      4.134903      113.287374
3.130000      0.005138      0.004704      1.737653      2.630592      5.240703      113.672869
3.140000      0.005080      0.004702      1.835498      2.872214      5.899010      114.042419
3.150000      0.004806      0.004484      1.861811      3.034728      6.454535      114.392835
3.160000      0.004293      0.003987      1.752906      2.947222      6.425984      114.753631
3.170000      0.003663      0.003420      1.618959      2.781061      6.163719      115.118422
3.180000      0.002840      0.002578      1.325939      2.265824      5.001720      115.514234
3.190000      0.002218      0.001891      1.221595      2.004435      4.285239      115.952775
3.200000      0.001616      0.001162      1.029332      1.611412      3.309634      116.422178
3.210000      0.001164      0.000601      1.005475      1.509884      2.983658      116.935161
3.220000      0.000808      0.000288      1.085646      1.593682      3.079486      117.439814
3.230000      0.000620      0.000470      1.373557      2.008500      3.865797      117.920936
3.240000      0.000681      0.000821      1.718275      2.568377      5.052794      118.320678
3.250000      0.001050      0.001182      1.815256      2.793763      5.650391      118.700994
3.260000      0.001538      0.001517      1.864888      2.962543      6.163436      119.063261
3.270000      0.001831      0.001734      1.753980      2.842716      6.015277      119.434700
3.280000      0.002055      0.001889      1.637577      2.679672      5.715037      119.811177
3.290000      0.002099      0.001852      1.343001      2.172926      4.590760      120.217120
3.300000      0.002084      0.001903      1.234260      1.911101      3.885246      120.671971
3.310000      0.002052      0.001967      1.049020      1.545534      2.996269      121.154616
3.320000      0.002195      0.002243      1.001603      1.413480      2.619233      121.688979
3.330000      0.002579      0.002662      1.082097      1.493772      2.700423      122.218994
3.340000      0.003188      0.003300      1.330557      1.832641      3.304632      122.728231
3.350000      0.003927      0.003990      1.664863      2.354646      4.374307      123.154846
3.360000      0.004328      0.004332      1.749066      2.572701      4.980290      123.557237
3.370000      0.004632      0.004546      1.821304      2.808574      5.689403      123.941616
3.380000      0.004571      0.004411      1.731009      2.771950      5.805579      124.326679
3.390000      0.004373      0.004157      1.634150      2.680228      5.726461      124.714726
3.400000      0.003912      0.003555      1.398483      2.283635      4.861248      125.125104
3.410000      0.003414      0.003035      1.306519      2.025123      4.120538      125.576562
3.420000      0.002859      0.002477      1.145633      1.663700      3.177774      126.049850
3.430000      0.002381      0.002161      1.064940      1.450860      2.582153      126.578295
3.440000      0.002188      0.002214      1.138840      1.493442      2.535402      127.115179
3.450000      0.002338      0.002569      1.328658      1.718512      2.865293      127.639981
3.460000      0.002767      0.003076      1.573677      2.073710      3.542942      128.100978
3.470000      0.003113      0.003457      1.620883      2.221705      3.983296      128.539084
3.480000      0.003441      0.003787      1.661121      2.416201      4.624137      128.964435
3.490000      0.003580      0.003876      1.615761      2.501784      5.086769      129.380917
3.500000      0.003519      0.003829      1.545332      2.515980      5.343572      129.795171
3.510000      0.003265      0.003564      1.454023      2.401824      5.161458      130.220431
3.520000      0.002894      0.003062      1.432240      2.251622      4.639865      130.660122
3.530000      0.002338      0.002398      1.325210      1.937532      3.725996      131.112746
3.540000      0.001783      0.001614      1.207792      1.624202      2.844664      131.610363
3.550000      0.001408      0.001080      1.249557      1.584674      2.570159      132.135396
3.560000      0.001239      0.000739      1.345554      1.658999      2.582476      132.662484
3.570000      0.000918      0.000506      1.394879      1.722340      2.686964      133.170449
3.580000      0.000493      0.000169      1.383523      1.746925      2.815730      133.673766
3.590000      0.000125      0.000292      1.334877      1.773315      3.058829      134.178328
3.600000      0.000651      0.000769      1.348121      1.932607      3.640326      134.667986
3.610000      0.001098      0.001142      1.336122      2.064151      4.186018      135.141796
3.620000      0.001398      0.001280      1.493996      2.396237      5.023063      135.603758
3.630000      0.001214      0.001046      1.644951      2.577963      5.295690      136.027731
3.640000      0.000918      0.000702      1.642521      2.453397      4.818369      136.451585
3.650000      0.000853      0.001178      1.535056      2.134856      3.888581      136.889203
3.660000      0.001514      0.002099      1.514404      1.967906      3.298248      137.361691
3.670000      0.002347      0.003037      1.492150      1.853469      2.916527      137.843572
3.680000      0.002930      0.003693      1.288827      1.570637      2.401082      138.359802
3.690000      0.003541      0.004298      1.218483      1.478232      2.244072      138.915850
3.700000      0.003923      0.004704      1.058148      1.294629      1.991783      139.503367
3.710000      0.004579      0.005292      1.069174      1.341684      2.143962      140.107560
3.720000      0.005279      0.005913      1.123853      1.460553      2.449964      140.684499
3.730000      0.006492      0.006956      1.426772      1.913389      3.341100      141.224314
3.740000      0.007484      0.007838      1.711854      2.353651      4.234467      141.677422
3.750000      0.007838      0.008124      1.781095      2.492002      4.573738      142.116286
3.760000      0.007874      0.008038      1.801838      2.532328      4.670634      142.538919
3.770000      0.007453      0.007571      1.741843      2.415347      4.387363      142.975167
3.780000      0.006804      0.006942      1.632413      2.223812      3.956226      143.417526
3.790000      0.005813      0.005900      1.383845      1.831252      3.143374      143.898336
3.800000      0.005098      0.005086      1.321221      1.675114      2.715252      144.419226
3.810000      0.004241      0.004103      1.143283      1.398581      2.150690      144.974183
3.820000      0.003680      0.003373      1.095214      1.309850      1.943095      145.583460
3.830000      0.003434      0.003030      1.186319      1.405712      2.053184      146.188766
3.840000      0.003375      0.002929      1.359807      1.611225      2.353067      146.772986
3.850000      0.003155      0.002830      1.443309      1.727262      2.564853      147.315897
3.860000      0.002955      0.002676      1.431167      1.750230      2.690188      147.844336
3.870000      0.002880      0.002589      1.427091      1.818487      2.968467      148.370497
3.880000      0.003010      0.002674      1.424725      1.907997      3.324055      148.881601
3.890000      0.003335      0.002900      1.402579      1.961308      3.595409      149.387391
3.900000      0.003976      0.003482      1.574355      2.210027      4.068713      149.879178
3.910000      0.004417      0.003999      1.617127      2.204044      3.922025      150.346510
3.920000      0.004706      0.004324      1.562116      2.041330      3.446616      150.826613
3.930000      0.004761      0.004523      1.434535      1.780772      2.798889      151.336347
3.940000      0.004927      0.004801      1.439721      1.718344      2.539336      151.874297
3.950000      0.004823      0.004800      1.317565      1.545237      2.216070      152.432132
3.960000      0.004558      0.004577      1.131429      1.323794      1.889645      153.061508
3.970000      0.004434      0.004478      1.053701      1.240569      1.788996      153.721632
3.980000      0.004164      0.004248      0.924427      1.097407      1.604503      154.450194
3.990000      0.004272      0.004362      0.985686      1.170521      1.712956      155.195323
4.000000      0.004532      0.004617      1.119622      1.327042      1.937163      155.894019
4.010000      0.005004      0.005137      1.417206      1.678988      2.451261      156.514827
4.020000      0.005093      0.005258      1.523024      1.833265      2.749423      157.072164
4.030000      0.005045      0.005298      1.578614      1.978431      3.156448      157.602408
4.040000      0.004979      0.005325      1.684039      2.244903      3.891137      158.096214
4.050000      0.004699      0.005120      1.692255      2.395130      4.451955      158.569974
4.060000      0.004467      0.004925      1.770518      2.611192      5.066573      159.039159
4.070000      0.004347      0.004741      1.964058      2.861946      5.483782      159.473599
4.080000      0.003955      0.004323      1.942552      2.723381      5.004739      159.903517
4.090000      0.003456      0.003740      1.819396      2.406504      4.124390      160.347142
4.100000      0.002959      0.003131      1.661048      2.050597      3.193443      160.833825
4.110000      0.002615      0.002687      1.610987      1.887954      2.702418      161.342568
4.120000      0.002197      0.002240      1.347714      1.540043      2.105421      161.893009
4.130000      0.002092      0.002042      1.208617      1.384282      1.898338      162.531951
4.140000      0.002156      0.002092      1.029066      1.216936      1.763287      163.221987
4.150000      0.002378      0.002298      0.891735      1.111328      1.747148      164.025240
4.160000      0.002768      0.002737      0.930680      1.216649      2.042912      164.872303
4.170000      0.003205      0.003257      1.009153      1.361470      2.378600      165.721307
4.180000      0.003505      0.003644      1.061449      1.422328      2.464552      166.530073
4.190000      0.003695      0.003834      1.045361      1.354192      2.247464      167.320461
4.200000      0.003938      0.004017      1.016738      1.253204      1.939696      168.119734
4.210000      0.004435      0.004409      1.089183      1.285962      1.861023      168.868487
4.220000      0.005028      0.004884      1.153311      1.349613      1.926571      169.562207
4.230000      0.006179      0.006007      1.530126      1.822521      2.682941      170.184928
4.240000      0.006949      0.006793      1.759181      2.166233      3.362456      170.707030
4.250000      0.007466      0.007309      1.878316      2.408734      3.964380      171.208201
4.260000      0.007939      0.007806      2.062462      2.739564      4.722010      171.667983
4.270000      0.007899      0.007808      2.050139      2.781977      4.922373      172.118116
4.280000      0.007673      0.007596      1.968453      2.705702      4.860330      172.572062
4.290000      0.007401      0.007272      1.914486      2.579216      4.522623      173.036672
4.300000      0.007023      0.006914      1.863825      2.404193      3.986182      173.508688
4.310000      0.006405      0.006278      1.696169      2.079507      3.204198      174.003801
4.320000      0.005758      0.005647      1.557968      1.815586      2.573440      174.547017
4.330000      0.005386      0.005263      1.576871      1.784392      2.394976      175.108903
4.340000      0.004791      0.004709      1.454161      1.640056      2.184786      175.692903
4.350000      0.004209      0.004146      1.313481      1.505201      2.063817      176.341881
4.360000      0.003690      0.003624      1.176333      1.394280      2.026044      177.027760
4.370000      0.003181      0.003110      1.003763      1.246932      1.949441      177.808397
4.380000      0.002995      0.002881      1.003636      1.310524      2.195421      178.648218
4.390000      0.002957      0.002795      1.040973      1.431197      2.555184      179.502560
4.400000      0.002891      0.002748      1.082306      1.544503      2.875070      180.348108
4.410000      0.002704      0.002601      1.047646      1.525945      2.902508      181.209069
4.420000      0.002465      0.002405      0.941077      1.385941      2.666141      182.119512
4.430000      0.002305      0.002257      0.934249      1.361156      2.589712      183.054313
4.440000      0.002196      0.002151      0.942653      1.345262      2.504064      183.974097
4.450000      0.002251      0.002201      1.082962      1.500035      2.700798      184.869361
4.460000      0.002249      0.002245      1.178241      1.569841      2.697868      185.677222
4.470000      0.002210      0.002191      1.143877      1.459745      2.370482      186.471018
4.480000      0.002286      0.002235      1.211765      1.470719      2.218668      187.248181
4.490000      0.002410      0.002294      1.233362      1.433492      2.013214      187.983524
4.500000      0.002652      0.002440      1.247125      1.406998      1.871926      188.705479
4.510000      0.003093      0.002891      1.498222      1.664450      2.149451      189.372383
4.520000      0.003340      0.003146      1.546216      1.704476      2.167489      189.987992
4.530000      0.003607      0.003422      1.634357      1.794935      2.265699      190.596188
4.540000      0.003832      0.003676      1.746063      1.914562      2.409102      191.168238
4.550000      0.003895      0.003760      1.741316      1.907693      2.396351      191.730578
4.560000      0.003893      0.003744      1.684373      1.844452      2.314840      192.299839
4.570000      0.003943      0.003785      1.704919      1.859970      2.315721      192.871417
4.580000      0.003916      0.003777      1.687867      1.833006      2.259674      193.441373
4.590000      0.003821      0.003695      1.645104      1.779203      2.173218      194.023088
4.600000      0.003752      0.003654      1.683688      1.819319      2.217058      194.616197
4.610000      0.003650      0.003577      1.723637      1.868881      2.293635      195.201913
4.620000      0.003351      0.003325      1.611126      1.756862      2.181969      195.799535
4.630000      0.003110      0.003089      1.572586      1.730061      2.188190      196.427534
4.640000      0.002780      0.002769      1.442812      1.608111      2.087812      197.072771
4.650000      0.002474      0.002467      1.352271      1.534331      2.061509      197.763350
4.660000      0.002325      0.002289      1.418231      1.645507      2.302417      198.461243
4.670000      0.002180      0.002130      1.469742      1.746874      2.546889      199.154350
4.680000      0.001930      0.001920      1.431392      1.736232      2.615574      199.851846
4.690000      0.001689      0.001703      1.378295      1.705298      2.648042      200.561095
4.700000      0.001437      0.001485      1.245582      1.571465      2.510621      201.315051
4.710000      0.001309      0.001355      1.238844      1.590705      2.604414      202.101053
4.720000      0.001299      0.001339      1.272736      1.667075      2.802885      202.881672
4.730000      0.001350      0.001410      1.351875      1.803595      3.104420      203.653135
4.740000      0.001385      0.001470      1.351746      1.829093      3.203537      204.421022
4.750000      0.001436      0.001522      1.248488      1.714893      3.057731      205.206735
4.760000      0.001528      0.001596      1.199743      1.665399      3.005990      206.029096
4.770000      0.001668      0.001715      1.213125      1.698749      3.096746      206.856992
4.780000      0.001857      0.001883      1.254189      1.774683      3.273010      207.691912
4.790000      0.002019      0.002059      1.318832      1.883190      3.507707      208.495250
4.800000      0.002111      0.002129      1.275870      1.837079      3.452493      209.297861
4.810000      0.002194      0.002189      1.209606      1.754325      3.322275      210.137973
4.820000      0.002308      0.002282      1.215665      1.769218      3.362563      210.983102
4.830000      0.002416      0.002355      1.200618      1.754968      3.350610      211.828336
4.840000      0.002594      0.002524      1.293683      1.896267      3.630714      212.672146
4.850000      0.002668      0.002583      1.310257      1.927336      3.703484      213.490583
4.860000      0.002653      0.002551      1.226320      1.813497      3.503617      214.327556
4.870000      0.002693      0.002580      1.232637      1.824661      3.528717      215.182104
4.880000      0.002722      0.002585      1.239130      1.833875      3.545746      216.028876
4.890000      0.002775      0.002615      1.249358      1.850056      3.579089      216.886834
4.900000      0.002852      0.002679      1.324806      1.960300      3.789464      217.714739
4.910000      0.002785      0.002610      1.273901      1.886167      3.648488      218.538920
4.920000      0.002736      0.002562      1.235025      1.829018      3.538777      219.396987
4.930000      0.002729      0.002539      1.267137      1.872560      3.615194      220.243894
4.940000      0.002679      0.002483      1.251612      1.846622      3.559297      221.086138
4.950000      0.002724      0.002510      1.333575      1.958987      3.759164      221.926263
4.960000      0.002685      0.002482      1.342435      1.966689      3.763538      222.742330
4.970000      0.002586      0.002404      1.257622      1.840918      3.519935      223.578140
4.980000      0.002583      0.002396      1.285793      1.873597      3.565593      224.424837
4.990000      0.002562      0.002382      1.303568      1.890740      3.580914      225.256368
5.000000      0.002572      0.002394      1.321488      1.909010      3.600228      226.093204
