# Output from "simple" SuperMix based program
# Scanning BIAS from 0.010000 to 6.000000 mVolt in steps of 0.010000 mVolt
#
# FREQUENCY 690.000000 GHz
# BIAS 2.000000 mV
# LO_POWER 225.000000 nW
#
# Data from mixer.conf
#
# TEMP 2.500000 K
# Z0 20.000000 Ohms
# IF_FREQ 5.000000 GHz
# IF_Z0 50.000000 Ohms
# HARMONICS 1
#
# IV_CURVE 31Jul03_unpump.IV
# KK_CURVE 31Jul03_unpump.KK
# RNA 20.000000 Ohm*um^2
# SCAP 60.000000 fF/um^2
# AREA 1.000000 um^2
# VGAP 2.820000 mV
#
# TUNER_TYPE BEL_WITH_RFCHOKE
# BELITSKY_INPUT_STRIP 48.000000 6.500000
# BELITSKY_TUNING_STRIP 15.000000 5.000000
# RF_CHOKE_TYPE FILTER
# FILTER_CHOKE_SECTIONS 3
# FILTER_CHOKE_INPUT 39.000000 6.500000
# FILTER_CHOKE_NARROW 39.000000 6.500000
# FILTER_CHOKE_WIDE 45.000000 13.000000
#
# TOP_DEFAULT NB
# TOP_THICKNESS 4000.000000
# GROUND_DEFAULT NB
# GROUND_THICKNESS 4000.000000
# INSUL_DEFAULT SIO
# INSUL_THICKNESS 4250.000000
# COVER_DEFAULT AIR
# COVER_THICKNESS 100000.000000
#
# NB_PROPERTIES 3.050000 9.400000 5.000000
# NBTIN_PROPERTIES 5.000000 15.750000 30.000000
# SIO_PROPERTIES 5.800000 0.000000
# AIR_PROPERTIES 1.000000 0.000000
#
# End of configuration file data
# 
# building the mixer...
# building tuner...
# tuner complete
# building IV curves...
# IV curves complete
# built mixer
# Junction 1 Embedding Impedance : 0.116630+-0.126594i
# Junction 2 Embedding Impedance : 0.078887+-0.256796i
# 
# Results:
#
# BIAS (mVolt)| LSB Gain | USB Gain | IF Output 0K (K)| IF Output 77K (K)| IF Output 297K (K)| DC Current (junc 1) (uA)| DC Current (junc 2) (uA)
0.010000      0.001270      0.000548      0.013206      0.013324      0.013744      2.249789      1.323586
0.020000      0.002303      0.001068      0.011503      0.011901      0.013313      4.572175      2.697921
0.030000      0.003243      0.001585      0.009800      0.010604      0.013459      7.298939      4.344741
0.040000      0.004190      0.002302      0.009790      0.011200      0.016209      10.070477      6.068253
0.050000      0.005431      0.003414      0.011031      0.013568      0.022584      12.898063      7.922799
0.060000      0.007112      0.004982      0.015001      0.019651      0.036173      14.877626      9.333099
0.070000      0.009770      0.007473      0.023279      0.032607      0.065759      16.795045      10.754810
0.080000      0.012934      0.010553      0.036559      0.053737      0.114797      17.969060      11.730765
0.090000      0.017792      0.015377      0.063228      0.097316      0.218497      18.965981      12.598431
0.100000      0.021846      0.019385      0.089209      0.141786      0.328698      19.505709      13.156524
0.110000      0.031001      0.028244      0.172797      0.281201      0.666599      19.950621      13.616065
0.120000      0.036712      0.033818      0.232448      0.386007      0.931948      20.466477      14.137594
0.130000      0.038553      0.035693      0.248628      0.418756      1.023608      20.672443      14.435022
0.140000      0.049366      0.046076      0.396595      0.677643      1.676859      20.921523      14.743359
0.150000      0.055341      0.051607      0.487346      0.840250      2.094937      21.163361      15.050064
0.160000      0.062025      0.058120      0.603107      1.048404      2.631589      21.377287      15.324760
0.170000      0.066578      0.062673      0.683905      1.199175      3.031154      21.572075      15.589049
0.180000      0.068668      0.064777      0.716375      1.265597      3.218293      21.674583      15.770133
0.190000      0.078135      0.073891      0.913293      1.626058      4.160221      21.785591      15.947946
0.200000      0.081677      0.077162      0.982429      1.760540      4.527033      21.918193      16.133710
0.210000      0.083035      0.078437      0.999254      1.803379      4.662359      22.062220      16.325287
0.220000      0.085372      0.080683      1.039653      1.890057      4.913582      22.210709      16.519473
0.230000      0.087363      0.082677      1.073394      1.965057      5.135282      22.347931      16.705942
0.240000      0.089880      0.085209      1.122813      2.068170      5.429306      22.464079      16.877750
0.250000      0.093132      0.088468      1.192694      2.209627      5.825256      22.584385      17.051856
0.260000      0.095376      0.090798      1.239529      2.308262      6.108077      22.704866      17.225172
0.270000      0.098239      0.093684      1.304174      2.439885      6.477845      22.822156      17.394577
0.280000      0.102069      0.097476      1.397020      2.624683      6.989584      22.934983      17.557861
0.290000      0.106785      0.102108      1.517755      2.863084      7.646354      23.041892      17.712912
0.300000      0.111705      0.106937      1.648760      3.122560      8.362612      23.140146      17.856851
0.310000      0.116688      0.111831      1.786090      3.396013      9.120057      23.227609      17.987835
0.320000      0.121642      0.116705      1.926956      3.678282      9.905092      23.305744      18.108007
0.330000      0.125709      0.120734      2.043304      3.915587      10.572469      23.376675      18.220039
0.340000      0.128543      0.123574      2.121631      4.081081      11.047893      23.442589      18.326478
0.350000      0.130734      0.125783      2.179774      4.208173      11.420142      23.506361      18.430285
0.360000      0.132284      0.127353      2.217055      4.295087      11.683536      23.571722      18.534954
0.370000      0.132668      0.127774      2.215285      4.306201      11.740461      23.640285      18.641549
0.380000      0.132480      0.127616      2.194202      4.279563      11.694074      23.712442      18.749928
0.390000      0.132591      0.127728      2.182635      4.271566      11.698774      23.788534      18.860070
0.400000      0.132833      0.127960      2.174763      4.271310      11.725596      23.868471      18.971827
0.410000      0.132981      0.128104      2.163172      4.264412      11.735387      23.950237      19.083522
0.420000      0.133505      0.128625      2.163297      4.281382      11.812248      24.032058      19.193919
0.430000      0.134437      0.129557      2.176279      4.324587      11.962912      24.113662      19.303308
0.440000      0.135338      0.130474      2.188074      4.366044      12.109837      24.194940      19.412041
0.450000      0.136224      0.131391      2.199611      4.407229      12.256446      24.275839      19.520382
0.460000      0.137420      0.132619      2.221549      4.469309      12.461257      24.356677      19.628846
0.470000      0.138884      0.134113      2.252752      4.550006      12.717939      24.437939      19.737969
0.480000      0.140473      0.135735      2.288772      4.640351      13.001445      24.518896      19.846928
0.490000      0.142373      0.137663      2.335804      4.752967      13.347258      24.598311      19.954419
0.500000      0.144615      0.139921      2.394900      4.890348      13.762995      24.674952      20.059100
0.510000      0.146860      0.142175      2.454762      5.029732      14.185127      24.747935      20.159923
0.520000      0.148782      0.144102      2.504116      5.148092      14.548847      24.817454      20.256845
0.530000      0.150488      0.145799      2.546117      5.251887      14.872359      24.884485      20.350709
0.540000      0.151956      0.147243      2.579600      5.338805      15.149266      24.950592      20.443058
0.550000      0.153004      0.148263      2.598350      5.395823      15.342349      25.017330      20.535557
0.560000      0.153917      0.149149      2.612344      5.443335      15.509038      25.086125      20.629752
0.570000      0.155051      0.150253      2.633866      5.506816      15.721704      25.156889      20.725875
0.580000      0.156474      0.151657      2.665664      5.592048      15.996929      25.228401      20.823069
0.590000      0.158361      0.153534      2.714139      5.712460      16.373117      25.298988      20.919782
0.600000      0.160699      0.155871      2.779273      5.868104      16.850583      25.367054      21.014374
0.610000      0.162986      0.158173      2.843887      6.022902      17.326046      25.431022      21.105212
0.620000      0.165009      0.160220      2.900173      6.160235      17.751554      25.490221      21.191299
0.630000      0.166695      0.161932      2.945206      6.273744      18.108541      25.545585      21.273175
0.640000      0.167848      0.163107      2.971482      6.347315      18.350276      25.598781      21.352307
0.650000      0.168344      0.163625      2.974289      6.370822      18.447389      25.651845      21.430616
0.660000      0.168230      0.163535      2.955376      6.347739      18.409483      25.706792      21.510071
0.670000      0.167584      0.162920      2.917843      6.284459      18.254658      25.765442      21.592551
0.680000      0.166475      0.161856      2.864611      6.187090      18.000359      25.828576      21.679016
0.690000      0.165188      0.160621      2.805838      6.077466      17.709935      25.896096      21.769426
0.700000      0.164226      0.159709      2.758709      5.992824      17.491913      25.966829      21.862589
0.710000      0.164111      0.159625      2.740183      5.970298      17.455170      26.039360      21.957145
0.720000      0.164855      0.160383      2.750196      6.010353      17.602042      26.112255      22.051734
0.730000      0.166023      0.161559      2.774096      6.081380      17.840639      26.183997      22.144952
0.740000      0.167548      0.163090      2.809885      6.179167      18.158871      26.253167      22.235534
0.750000      0.169621      0.165164      2.864268      6.318571      18.600579      26.319516      22.323480
0.760000      0.171909      0.167455      2.926454      6.475890      19.096156      26.383291      22.409223
0.770000      0.173986      0.169543      2.982072      6.619151      19.551048      26.444761      22.493171
0.780000      0.175828      0.171401      3.030227      6.746031      19.957850      26.504427      22.575905
0.790000      0.177284      0.172876      3.065568      6.844345      20.280075      26.563574      22.658645
0.800000      0.177958      0.173577      3.074183      6.882690      20.424133      26.623073      22.742078
0.810000      0.177965      0.173614      3.059937      6.869417      20.414321      26.683093      22.826151
0.820000      0.177844      0.173517      3.041420      6.846144      20.374142      26.743774      22.910824
0.830000      0.177839      0.173527      3.026968      6.831808      20.360221      26.805198      22.996044
0.840000      0.177912      0.173614      3.015243      6.823549      20.364284      26.866869      23.081299
0.850000      0.178264      0.173975      3.012971      6.836722      20.432378      26.928065      23.165953
0.860000      0.178987      0.174705      3.023345      6.878689      20.586678      26.988750      23.250110
0.870000      0.179872      0.175598      3.039353      6.933558      20.779727      27.049065      23.334014
0.880000      0.180824      0.176558      3.057806      6.994014      20.989531      27.109149      23.417900
0.890000      0.181727      0.177467      3.074706      7.050904      21.188612      27.169414      23.502175
0.900000      0.182359      0.178107      3.082527      7.086958      21.325055      27.230735      23.587617
0.910000      0.182881      0.178630      3.086457      7.114129      21.434862      27.293188      23.674159
0.920000      0.183734      0.179470      3.101262      7.166736      21.621875      27.356241      23.761109
0.930000      0.185095      0.180802      3.132780      7.258751      21.928997      27.419346      23.847812
0.940000      0.186748      0.182421      3.173791      7.373918      22.307829      27.481800      23.933594
0.950000      0.188446      0.184092      3.216016      7.493135      22.700798      27.542100      24.017119
0.960000      0.190332      0.185959      3.264559      7.628268      23.143818      27.599090      24.097531
0.970000      0.192216      0.187840      3.313265      7.764720      23.592262      27.653160      24.175591
0.980000      0.193500      0.189148      3.341692      7.854062      23.898197      27.705003      24.252136
0.990000      0.194303      0.189992      3.354037      7.905320      24.087822      27.755386      24.327947
1.000000      0.195127      0.190859      3.367740      7.959143      24.284306      27.805619      24.404256
1.010000      0.195714      0.191486      3.373806      7.994116      24.422067      27.857533      24.482640
1.020000      0.195790      0.191606      3.362823      7.987808      24.432389      27.911424      24.563022
1.030000      0.195864      0.191714      3.352125      7.981442      24.441429      27.966788      24.644672
1.040000      0.196405      0.192271      3.357519      8.013095      24.566454      28.023055      24.726914
1.050000      0.197314      0.193187      3.375424      8.074811      24.783948      28.079504      24.808995
1.060000      0.198375      0.194253      3.398362      8.149087      25.040765      28.134879      24.889753
1.070000      0.199751      0.195630      3.431840      8.249398      25.378712      28.188398      24.968597
1.080000      0.201444      0.197324      3.476113      8.376554      25.800574      28.240149      25.045781
1.090000      0.203082      0.198967      3.518391      8.499782      26.211632      28.290307      25.121573
1.100000      0.204518      0.200417      3.553723      8.606889      26.573950      28.339066      25.196233
1.110000      0.205844      0.201761      3.585264      8.705263      26.909962      28.386770      25.270123
1.120000      0.207000      0.202940      3.611018      8.789842      27.203701      28.433828      25.343642
1.130000      0.207851      0.203819      3.626249      8.848858      27.418408      28.480415      25.416948
1.140000      0.208327      0.204329      3.628548      8.876184      27.534728      28.526602      25.490115
1.150000      0.208360      0.204400      3.615544      8.865818      27.533747      28.572445      25.563189
1.160000      0.207921      0.204002      3.586354      8.815353      27.407640      28.618142      25.636334
1.170000      0.207036      0.203156      3.542062      8.727211      27.163591      28.664232      25.710059
1.180000      0.205699      0.201856      3.482778      8.601447      26.801447      28.711520      25.785194
1.190000      0.203959      0.200148      3.410572      8.442993      26.336328      28.761002      25.862783
1.200000      0.202027      0.198246      3.333087      8.270482      25.825941      28.813678      25.943876
1.210000      0.200246      0.196493      3.261891      8.112492      25.359347      28.870433      26.029476
1.220000      0.199010      0.195278      3.209504      8.000372      25.034837      28.931380      26.119822
1.230000      0.198535      0.194822      3.182402      7.950659      24.904729      28.995737      26.214051
1.240000      0.199327      0.195624      3.196398      8.003370      25.095100      29.061294      26.309762
1.250000      0.201923      0.198209      3.268812      8.202723      25.745805      29.125657      26.404416
1.260000      0.205918      0.202178      3.387693      8.519940      26.768236      29.186466      26.495520
1.270000      0.210153      0.206391      3.516220      8.863146      27.874763      29.241660      26.580891
1.280000      0.214145      0.210370      3.638221      9.191721      28.937847      29.289795      26.659131
1.290000      0.217985      0.214200      3.756376      9.512344      29.978381      29.331353      26.730955
1.300000      0.221145      0.217363      3.852029      9.777634      30.846843      29.367846      26.798052
1.310000      0.223213      0.219451      3.910025      9.948472      31.418913      29.400843      26.862068
1.320000      0.224461      0.220727      3.939359      10.046862      31.762848      29.432016      26.924680
1.330000      0.224795      0.221097      3.936622      10.063413      31.847987      29.463402      26.987846
1.340000      0.223831      0.220179      3.888735      9.963933      31.565066      29.496720      27.053222
1.350000      0.221783      0.218181      3.803998      9.768953      30.978103      29.533049      27.121856
1.360000      0.219153      0.215601      3.700945      9.525487      30.235381      29.573328      27.194711
1.370000      0.216001      0.212503      3.582525      9.240800      29.359515      29.618415      27.272739
1.380000      0.212295      0.208861      3.448691      8.914562      28.349162      29.668651      27.356399
1.390000      0.208502      0.205138      3.315410      8.587922      27.335005      29.723800      27.445516
1.400000      0.205249      0.201953      3.202402      8.312056      26.480081      29.783025      27.539231
1.410000      0.202842      0.199607      3.118125      8.109214      25.855670      29.845313      27.636479
1.420000      0.201395      0.198212      3.064782      7.985605      25.482227      29.909663      27.736173
1.430000      0.201164      0.198018      3.049168      7.959531      25.418967      29.975140      27.837285
1.440000      0.202428      0.199299      3.079188      8.052359      25.735121      30.040966      27.938938
1.450000      0.205237      0.202106      3.156770      8.269961      26.450586      30.105909      28.039785
1.460000      0.209555      0.206402      3.282127      8.613818      27.571357      30.168279      28.138010
1.470000      0.215250      0.212058      3.453353      9.080007      29.086333      30.226367      28.231847
1.480000      0.221347      0.218114      3.641106      9.592352      30.752816      30.278447      28.319587
1.490000      0.226264      0.223011      3.792985      10.012989      32.129067      30.322903      28.399718
1.500000      0.230077      0.226819      3.909215      10.342020      33.214749      30.358964      28.471775
1.510000      0.233398      0.230142      4.009346      10.630600      34.173392      30.388295      28.537755
1.520000      0.235770      0.232529      4.077104      10.834999      34.863648      30.413061      28.600016
1.530000      0.237011      0.233797      4.105808      10.936288      35.223028      30.435493      28.660879
1.540000      0.237539      0.234355      4.109958      10.971975      35.370859      30.457972      28.722734
1.550000      0.237082      0.233935      4.080503      10.917028      35.225278      30.483010      28.787989
1.560000      0.234784      0.231691      3.988963      10.694255      34.535891      30.512101      28.857957
1.570000      0.230927      0.227899      3.847218      10.334411      33.400562      30.546072      28.933362
1.580000      0.226473      0.223513      3.689727      9.929389      32.115413      30.585715      29.014939
1.590000      0.222266      0.219371      3.544543      9.554799      30.925138      30.631687      29.103351
1.600000      0.218916      0.216079      3.430091      9.260930      29.993327      30.684089      29.198629
1.610000      0.216700      0.213914      3.353285      9.067243      29.384058      30.741882      29.299470
1.620000      0.216423      0.213671      3.337418      9.037578      29.305334      30.802238      29.402792
1.630000      0.218845      0.216101      3.405218      9.234713      29.962345      30.862083      29.505400
1.640000      0.223375      0.220619      3.539743      9.614290      31.213245      30.918312      29.604125
1.650000      0.228196      0.225427      3.685389      10.026255      32.572158      30.968057      29.696134
1.660000      0.232571      0.229795      3.818243      10.405888      33.829258      31.009162      29.779557
1.670000      0.237029      0.234245      3.955074      10.798967      35.133471      31.042380      29.855626
1.680000      0.241038      0.238250      4.077920      11.156534      36.325637      31.069625      29.926523
1.690000      0.244106      0.241324      4.169536      11.430726      37.249010      31.092865      29.994376
1.700000      0.246636      0.243866      4.243170      11.656913      38.017631      31.114080      30.061259
1.710000      0.248689      0.245936      4.300717      11.839593      38.645248      31.135193      30.129078
1.720000      0.249659      0.246935      4.321172      11.920175      38.939625      31.157304      30.198805
1.730000      0.249382      0.246701      4.298983      11.882359      38.846254      31.180602      30.270488
1.740000      0.248483      0.245851      4.256105      11.786095      38.560171      31.205198      30.344162
1.750000      0.247574      0.244990      4.213713      11.689863      38.272509      31.231206      30.419878
1.760000      0.246962      0.244420      4.182080      11.622398      38.077644      31.258810      30.497734
1.770000      0.246529      0.244024      4.156926      11.572143      37.938147      31.288055      30.577676
1.780000      0.246317      0.243845      4.139479      11.542867      37.866815      31.318368      30.659054
1.790000      0.246437      0.243993      4.133265      11.544768      37.897576      31.349024      30.741131
1.800000      0.246500      0.244086      4.125055      11.541247      37.910729      31.379296      30.823212
1.810000      0.246096      0.243719      4.101248      11.494151      37.780835      31.408235      30.904536
1.820000      0.245376      0.243045      4.067185      11.418083      37.555416      31.434721      30.984228
1.830000      0.244245      0.241971      4.020075      11.304731      37.206540      31.459185      31.062907
1.840000      0.242664      0.240457      3.959152      11.151330      36.724330      31.483139      31.142186
1.850000      0.240894      0.238760      3.893509      10.982845      36.190179      31.508161      31.223662
1.860000      0.238620      0.236563      3.813307      10.771068      35.510575      31.536071      31.308870
1.870000      0.236016      0.234033      3.724456      10.532656      34.740383      31.569206      31.399747
1.880000      0.233656      0.231738      3.645079      10.319093      34.049706      31.608648      31.497034
1.890000      0.231683      0.229819      3.579029      10.141892      33.477294      31.652690      31.598710
1.900000      0.230637      0.228811      3.542156      10.046734      33.174896      31.699213      31.702469
1.910000      0.231549      0.229742      3.565273      10.122135      33.436205      31.745804      31.806142
1.920000      0.234178      0.232377      3.641146      10.348490      34.197633      31.789660      31.907300
1.930000      0.237426      0.235629      3.736557      10.632089      35.150368      31.828043      32.003556
1.940000      0.240713      0.238927      3.833728      10.922596      36.128323      31.860985      32.095274
1.950000      0.243398      0.241633      3.912038      11.161125      36.936546      31.889703      32.183894
1.960000      0.244590      0.242860      3.942428      11.263987      37.297104      31.915525      32.270780
1.970000      0.244122      0.242441      3.919368      11.214307      37.152783      31.939878      32.357357
1.980000      0.242902      0.241274      3.872444      11.095964      36.780500      31.964454      32.445309
1.990000      0.241906      0.240326      3.833092      10.998735      36.477489      31.989759      32.535141
2.000000      0.241959      0.240417      3.827175      10.997084      36.491012      32.014741      32.625859
2.010000      0.243591      0.242077      3.871306      11.139414      36.982514      32.038266      32.716396
2.020000      0.246602      0.245107      3.959564      11.409593      37.899554      32.059212      32.805709
2.030000      0.250167      0.248692      4.066516      11.734772      39.000682      32.076284      32.892600
2.040000      0.253730      0.252278      4.174568      12.064201      40.117272      32.088705      32.976360
2.050000      0.256362      0.254945      4.253042      12.308760      40.952385      32.098140      33.058606
2.060000      0.256465      0.255101      4.248328      12.312194      40.984803      32.106882      33.141483
2.070000      0.253317      0.252023      4.137538      12.006323      39.985289      32.117246      33.227124
2.080000      0.247709      0.246496      3.950521      11.476349      38.235874      32.131678      33.317765
2.090000      0.241015      0.239882      3.735305      10.861267      36.199001      32.152717      33.415755
2.100000      0.234522      0.233464      3.533346      10.281802      34.277251      32.180633      33.521247
2.110000      0.229606      0.228608      3.384245      9.853803      32.857579      32.213949      33.632713
2.120000      0.227008      0.226058      3.306246      9.631243      32.121009      32.251114      33.748587
2.130000      0.226346      0.225435      3.285497      9.574665      31.937041      32.290483      33.867263
2.140000      0.227012      0.226136      3.303481      9.630782      32.128754      32.330082      33.986800
2.150000      0.229017      0.228178      3.360634      9.801441      32.703015      32.367902      34.105287
2.160000      0.232425      0.231622      3.459620      10.094939      33.688146      32.402280      34.221171
2.170000      0.236757      0.235994      3.587471      10.474016      34.960514      32.431584      34.332953
2.180000      0.240538      0.239821      3.699917      10.809890      36.090842      32.454175      34.439156
2.190000      0.241411      0.240748      3.723131      10.886498      36.357316      32.468568      34.538523
2.200000      0.239859      0.239256      3.671391      10.744590      35.894803      32.473789      34.630654
2.210000      0.238060      0.237512      3.612429      10.581392      35.360981      32.472460      34.718712
2.220000      0.236210      0.235714      3.552713      10.415159      34.816017      32.469047      34.807391
2.230000      0.233525      0.233080      3.469519      10.178148      34.032080      32.468213      34.901295
2.240000      0.230474      0.230081      3.377877      9.913661      33.153016      32.474711      35.004929
2.250000      0.226493      0.226151      3.261903      9.575084      32.022934      32.493257      35.122368
2.260000      0.220376      0.220090      3.089002      9.067030      30.323180      32.525009      35.253742
2.270000      0.214631      0.214400      2.931903      8.603566      28.770376      32.565660      35.394229
2.280000      0.211676      0.211496      2.854149      8.371949      27.991676      32.610271      35.538780
2.290000      0.210978      0.210847      2.837856      8.320607      27.815717      32.653726      35.682442
2.300000      0.211266      0.211183      2.847960      8.346959      27.899849      32.690602      35.820628
2.310000      0.211293      0.211257      2.850764      8.352388      27.914622      32.716949      35.950302
2.320000      0.209870      0.209880      2.814294      8.243221      27.546969      32.735234      36.074565
2.330000      0.207465      0.207519      2.751825      8.058178      26.926093      32.749712      36.198187
2.340000      0.204384      0.204482      2.672669      7.823700      26.139341      32.764844      36.325804
2.350000      0.199532      0.199673      2.549891      7.460377      24.920711      32.785315      36.461755
2.360000      0.192970      0.193153      2.388318      6.982256      23.317041      32.815504      36.609932
2.370000      0.185428      0.185653      2.209444      6.452402      21.539203      32.856817      36.771167
2.380000      0.177685      0.177950      2.033713      5.930823      19.787890      32.908060      36.943742
2.390000      0.170626      0.170930      1.880877      5.475530      18.257147      32.967847      37.125920
2.400000      0.164963      0.165304      1.764056      5.125008      17.075653      33.034731      37.316064
2.410000      0.161257      0.161636      1.691945      4.904493      16.327458      33.107555      37.512879
2.420000      0.159485      0.159900      1.661374      4.804489      15.980572      33.184589      37.714617
2.430000      0.159581      0.160033      1.669854      4.817481      16.009612      33.262267      37.917863
2.440000      0.161814      0.162307      1.723367      4.960391      16.470399      33.336510      38.119046
2.450000      0.165824      0.166364      1.816135      5.216303      17.306413      33.403045      38.314691
2.460000      0.169280      0.169869      1.898629      5.442775      18.044840      33.457160      38.501147
2.470000      0.170659      0.171295      1.935330      5.538352      18.349767      33.494210      38.675118
2.480000      0.170678      0.171364      1.941148      5.546016      18.364001      33.515914      38.839501
2.490000      0.169082      0.169817      1.910318      5.449259      18.032831      33.527886      39.000257
2.500000      0.165250      0.166026      1.830151      5.211682      17.235554      33.536104      39.163218
2.510000      0.159914      0.160720      1.719666      4.887409      16.151110      33.546902      39.334260
2.520000      0.153307      0.154130      1.586748      4.499112      14.854754      33.567442      39.519905
2.530000      0.144768      0.145586      1.421421      4.019134      13.255956      33.602808      39.724534
2.540000      0.135047      0.135843      1.243517      3.504622      11.544557      33.654030      39.949001
2.550000      0.125512      0.126279      1.080671      3.034162      9.980300      33.721565      40.193943
2.560000      0.116427      0.117166      0.936378      2.617707      8.596104      33.805629      40.460021
2.570000      0.107453      0.108163      0.803953      2.236452      7.330073      33.905550      40.747118
2.580000      0.098712      0.099396      0.684704      1.894002      6.193977      34.020935      41.055220
2.590000      0.090299      0.090961      0.579086      1.591453      5.191189      34.156486      41.388900
2.600000      0.081961      0.082603      0.483047      1.317513      4.284678      34.318943      41.754036
2.610000      0.073867      0.074483      0.398022      1.076144      3.487391      34.515540      42.156282
2.620000      0.067101      0.067693      0.333814      0.893673      2.884403      34.753940      42.600964
2.630000      0.062322      0.062900      0.293083      0.776250      2.494283      35.043576      43.095371
2.640000      0.059728      0.060305      0.274195      0.718145      2.296731      35.373637      43.627506
2.650000      0.059857      0.060455      0.280504      0.726527      2.312485      35.709732      44.165652
2.660000      0.061846      0.062484      0.304670      0.780982      2.474643      36.015212      44.679881
2.670000      0.052017      0.052570      0.220024      0.557073      1.755546      36.250350      45.139914
2.680000      0.046466      0.046974      0.179846      0.448879      1.405502      36.370249      45.519035
2.690000      0.046483      0.047008      0.184425      0.453749      1.411406      36.609174      46.055613
2.700000      0.037136      0.037571      0.121255      0.293226      0.904721      37.186255      46.877584
2.710000      0.035543      0.035974      0.113592      0.271194      0.831594      37.657107      47.632549
2.720000      0.025850      0.026175      0.063055      0.146457      0.443017      38.421045      48.642126
2.730000      0.020865      0.021136      0.043041      0.097399      0.290681      38.606465      49.176751
2.740000      0.019697      0.019963      0.040697      0.089165      0.261511      39.657651      50.565688
2.750000      0.012122      0.012293      0.016742      0.035109      0.100418      41.171658      52.296560
2.760000      0.009042      0.009174      0.010330      0.020554      0.056910      42.315822      53.792840
2.770000      0.005956      0.006046      0.005380      0.009819      0.025603      45.185120      56.825624
2.780000      0.004069      0.004132      0.003039      0.005111      0.012480      48.721105      60.389365
2.790000      0.002740      0.002782      0.001865      0.002805      0.006145      55.480020      66.676306
2.800000      0.001876      0.001904      0.001248      0.001689      0.003254      63.051216      73.431147
2.810000      0.001361      0.001381      0.001050      0.001281      0.002105      73.388797      82.438728
2.820000      0.001025      0.001039      0.001020      0.001152      0.001619      85.862469      92.986676
2.830000      0.000876      0.000886      0.001347      0.001443      0.001783      98.122983      103.264768
2.840000      0.000775      0.000782      0.002152      0.002227      0.002493      108.753890      112.129980
2.850000      0.000734      0.000736      0.003705      0.003772      0.004009      115.383749      117.721294
2.860000      0.000748      0.000741      0.007842      0.007911      0.008154      121.743035      123.159428
2.870000      0.000727      0.000714      0.013962      0.014026      0.014253      126.608115      127.366534
2.880000      0.000741      0.000731      0.023949      0.024016      0.024253      128.856475      129.379014
2.890000      0.000910      0.000903      0.059304      0.059406      0.059766      130.555978      130.935463
2.900000      0.000989      0.000980      0.109367      0.109486      0.109911      132.509512      132.726155
2.910000      0.000968      0.000959      0.143439      0.143554      0.143961      133.654338      133.800307
2.920000      0.001042      0.001044      0.218889      0.219023      0.219500      134.261834      134.396966
2.930000      0.001374      0.001376      0.516723      0.516956      0.517785      134.697311      134.833927
2.940000      0.001299      0.001307      0.621255      0.621464      0.622208      135.426630      135.523665
2.950000      0.001181      0.001203      0.595114      0.595290      0.595912      135.680228      135.785835
2.960000      0.001328      0.001374      0.941980      0.942205      0.943005      136.076759      136.170356
2.970000      0.001391      0.001465      1.186041      1.186292      1.187187      136.525091      136.604069
2.980000      0.001410      0.001477      1.375494      1.375751      1.376665      136.999134      137.058130
2.990000      0.001350      0.001441      1.425150      1.425390      1.426244      137.245317      137.306009
3.000000      0.001464      0.001598      1.917712      1.918002      1.919031      137.435996      137.505312
3.010000      0.001566      0.001745      2.529450      2.529789      2.530994      137.634466      137.710288
3.020000      0.001630      0.001850      2.911943      2.912318      2.913650      137.837514      137.919768
3.030000      0.001654      0.001905      3.114179      3.114571      3.115965      138.015817      138.104733
3.040000      0.001586      0.001862      2.975303      2.975671      2.976982      138.192441      138.287646
3.050000      0.001616      0.001920      3.055478      3.055866      3.057246      138.355906      138.458388
3.060000      0.001649      0.001977      3.237213      3.237622      3.239074      138.572449      138.677292
3.070000      0.001686      0.002028      3.270910      3.271338      3.272863      138.798370      138.904611
3.080000      0.001699      0.002050      3.297766      3.298203      3.299756      139.037730      139.144179
3.090000      0.001708      0.002061      3.199177      3.199618      3.201188      139.191125      139.304952
3.100000      0.001751      0.002115      3.282345      3.282809      3.284461      139.367220      139.486601
3.110000      0.001699      0.002050      3.008184      3.008620      3.010174      139.592300      139.713483
3.120000      0.001627      0.001963      2.708345      2.708746      2.710171      139.831228      139.953254
3.130000      0.001574      0.001903      2.543211      2.543587      2.544924      140.082508      140.204402
3.140000      0.001516      0.001842      2.402948      2.403299      2.404545      140.344808      140.465582
3.150000      0.001454      0.001780      2.290921      2.291247      2.292404      140.616788      140.735426
3.160000      0.001387      0.001713      2.195116      2.195415      2.196480      140.897162      141.012622
3.170000      0.001316      0.001643      2.113833      2.114106      2.115077      141.185177      141.296545
3.180000      0.001242      0.001569      2.042350      2.042596      2.043474      141.480340      141.586901
3.190000      0.001167      0.001490      1.978177      1.978398      1.979182      141.782162      141.883396
3.200000      0.001091      0.001409      1.921123      1.921319      1.922015      142.090160      142.185733
3.210000      0.001015      0.001328      1.869924      1.870096      1.870708      142.403858      142.493630
3.220000      0.000940      0.001247      1.823379      1.823529      1.824063      142.722642      142.806585
3.230000      0.000864      0.001166      1.780836      1.780966      1.781428      143.046256      143.124304
3.240000      0.000788      0.001085      1.741054      1.741164      1.741559      143.374673      143.446703
3.250000      0.000711      0.001003      1.703029      1.703122      1.703453      143.707869      143.773696
3.260000      0.000631      0.000920      1.665878      1.665954      1.666227      144.045797      144.105166
3.270000      0.000551      0.000835      1.628971      1.629032      1.629252      144.388448      144.441034
3.280000      0.000469      0.000747      1.591748      1.591796      1.591967      144.736072      144.781549
3.290000      0.000389      0.000657      1.553661      1.553697      1.553825      145.088990      145.127055
3.300000      0.000312      0.000565      1.514851      1.514877      1.514968      145.447525      145.477895
3.310000      0.000244      0.000473      1.476147      1.476164      1.476226      145.812002      145.834413
3.320000      0.000198      0.000382      1.439416      1.439428      1.439468      146.182744      146.196955
3.330000      0.000191      0.000296      1.406565      1.406573      1.406600      146.559782      146.565549
3.340000      0.000230      0.000222      1.379354      1.379361      1.379383      146.942286      146.939379
3.350000      0.000298      0.000177      1.358930      1.358937      1.358963      147.329195      147.317413
3.360000      0.000383      0.000185      1.345152      1.345163      1.345202      147.719452      147.698620
3.370000      0.000477      0.000243      1.337557      1.337575      1.337637      148.112011      148.081994
3.380000      0.000576      0.000327      1.335774      1.335801      1.335897      148.505881      148.466594
3.390000      0.000679      0.000424      1.339437      1.339477      1.339617      148.900195      148.851633
3.400000      0.000785      0.000527      1.348245      1.348300      1.348496      149.294103      149.236345
3.410000      0.000893      0.000633      1.362176      1.362250      1.362513      149.686759      149.619963
3.420000      0.001002      0.000742      1.380676      1.380772      1.381113      150.077301      150.001692
3.430000      0.001113      0.000852      1.401453      1.401575      1.402005      150.464864      150.380723
3.440000      0.001224      0.000962      1.422314      1.422463      1.422994      150.848884      150.756524
3.450000      0.001334      0.001070      1.440870      1.441051      1.441691      151.230003      151.129685
3.460000      0.001441      0.001176      1.454122      1.454335      1.455093      151.609173      151.501093
3.470000      0.001546      0.001278      1.460642      1.460890      1.461772      151.987349      151.871642
3.480000      0.001648      0.001377      1.459954      1.460238      1.461249      152.365513      152.242269
3.490000      0.001745      0.001472      1.452167      1.452488      1.453630      152.744710      152.613995
3.500000      0.001837      0.001563      1.437462      1.437820      1.439095      153.126082      152.987952
3.510000      0.001923      0.001649      1.415684      1.416079      1.417486      153.510774      153.365285
3.520000      0.002003      0.001730      1.387204      1.387636      1.389171      153.899935      153.747139
3.530000      0.002078      0.001806      1.353890      1.354357      1.356018      154.294702      154.134641
3.540000      0.002149      0.001879      1.318998      1.319501      1.321287      154.696119      154.528802
3.550000      0.002220      0.001952      1.285561      1.286099      1.288014      155.104621      154.929972
3.560000      0.002294      0.002027      1.256146      1.256723      1.258776      155.519552      155.337463
3.570000      0.002372      0.002106      1.232237      1.232857      1.235062      155.940049      155.750386
3.580000      0.002456      0.002190      1.213431      1.214099      1.216472      156.365244      156.167858
3.590000      0.002545      0.002280      1.198858      1.199577      1.202135      156.794273      156.588997
3.600000      0.002638      0.002374      1.187960      1.188737      1.191497      157.226399      157.013079
3.610000      0.002737      0.002474      1.180430      1.181269      1.184250      157.661013      157.439532
3.620000      0.002839      0.002579      1.176033      1.176940      1.180164      158.097519      157.867786
3.630000      0.002946      0.002689      1.174626      1.175606      1.179092      158.535313      158.297274
3.640000      0.003057      0.002804      1.175962      1.177023      1.180793      158.973803      158.727439
3.650000      0.003171      0.002923      1.179508      1.180655      1.184731      159.412417      159.157748
3.660000      0.003290      0.003044      1.184758      1.185996      1.190398      159.850688      159.587766
3.670000      0.003411      0.003168      1.191272      1.192607      1.197355      160.288413      160.017309
3.680000      0.003534      0.003293      1.198688      1.200126      1.205240      160.725437      160.446239
3.690000      0.003659      0.003420      1.206824      1.208370      1.213867      161.161604      160.874412
3.700000      0.003787      0.003547      1.215511      1.217170      1.223069      161.596754      161.301681
3.710000      0.003915      0.003675      1.224588      1.226365      1.232683      162.030815      161.728005
3.720000      0.004043      0.003804      1.233858      1.235757      1.242509      162.463772      162.153403
3.730000      0.004171      0.003931      1.243192      1.245216      1.252414      162.895609      162.577897
3.740000      0.004298      0.004058      1.252703      1.254857      1.262513      163.326318      163.001508
3.750000      0.004425      0.004184      1.262645      1.264931      1.273058      163.755895      163.424261
3.760000      0.004551      0.004310      1.272961      1.275383      1.283992      164.184236      163.846056
3.770000      0.004677      0.004434      1.283568      1.286129      1.295232      164.611146      164.266664
3.780000      0.004803      0.004558      1.294297      1.296999      1.306608      165.036687      164.686093
3.790000      0.004929      0.004681      1.304728      1.307575      1.317700      165.460953      165.104390
3.800000      0.005053      0.004802      1.314350      1.317345      1.327993      165.884030      165.521596
3.810000      0.005175      0.004922      1.322641      1.325785      1.336961      166.306029      165.937785
3.820000      0.005293      0.005039      1.329151      1.332443      1.344147      166.727283      166.353296
3.830000      0.005407      0.005153      1.333422      1.336860      1.349085      167.148217      166.768566
3.840000      0.005516      0.005262      1.335281      1.338862      1.351597      167.569254      167.184027
3.850000      0.005619      0.005368      1.334917      1.338639      1.351871      167.990819      167.600117
3.860000      0.005718      0.005469      1.332778      1.336636      1.350355      168.413348      168.017280
3.870000      0.005814      0.005568      1.329444      1.333437      1.347636      168.837146      168.435803
3.880000      0.005908      0.005665      1.325605      1.329733      1.344414      169.262307      168.855753
3.890000      0.006003      0.005761      1.321839      1.326105      1.341275      169.688796      169.277074
3.900000      0.006099      0.005858      1.318303      1.322710      1.338381      170.116567      169.699702
3.910000      0.006196      0.005954      1.314744      1.319295      1.335477      170.545564      170.123566
3.920000      0.006293      0.006051      1.310920      1.315618      1.332319      170.975765      170.548639
3.930000      0.006390      0.006147      1.306617      1.311462      1.328687      171.407292      170.975060
3.940000      0.006485      0.006241      1.301580      1.306572      1.324323      171.840299      171.403003
3.950000      0.006578      0.006334      1.295716      1.300856      1.319130      172.274942      171.832639
3.960000      0.006669      0.006426      1.289080      1.294366      1.313159      172.711378      172.264144
3.970000      0.006759      0.006516      1.282091      1.287523      1.306837      173.149765      172.697690
3.980000      0.006850      0.006607      1.275542      1.281124      1.300970      173.590224      173.133407
3.990000      0.006943      0.006700      1.270157      1.275895      1.296296      174.032654      173.571210
4.000000      0.007041      0.006797      1.266487      1.272390      1.293379      174.476650      174.010722
4.010000      0.007144      0.006900      1.264848      1.270927      1.292541      174.921781      174.451541
4.020000      0.007251      0.007007      1.265240      1.271506      1.293785      175.367622      174.893267
4.030000      0.007363      0.007118      1.267628      1.274092      1.297075      175.813767      175.335523
4.040000      0.007479      0.007234      1.271949      1.278621      1.302346      176.259852      175.777971
4.050000      0.007599      0.007354      1.278161      1.285053      1.309556      176.705517      176.220276
4.060000      0.007722      0.007478      1.286357      1.293478      1.318800      177.150405      176.662100
4.070000      0.007851      0.007607      1.296884      1.304249      1.330433      177.594154      177.103093
4.080000      0.007984      0.007739      1.309582      1.317202      1.344294      178.036373      177.542859
4.090000      0.008120      0.007874      1.323811      1.331696      1.359730      178.476469      177.980765
4.100000      0.008259      0.008010      1.339017      1.347174      1.376179      178.914134      178.416441
4.110000      0.008397      0.008145      1.354109      1.362543      1.392529      179.349592      178.850042
4.120000      0.008531      0.008275      1.367789      1.376494      1.407446      179.783097      179.281765
4.130000      0.008659      0.008399      1.379294      1.388263      1.420153      180.214910      179.711832
4.140000      0.008780      0.008516      1.387976      1.397197      1.429982      180.645462      180.140664
4.150000      0.008890      0.008624      1.393150      1.402605      1.436223      181.075410      180.568933
4.160000      0.008989      0.008722      1.394355      1.404023      1.438396      181.505435      180.997325
4.170000      0.009074      0.008809      1.391659      1.401516      1.436562      181.936217      181.426523
4.180000      0.009148      0.008885      1.385279      1.395302      1.430939      182.368442      181.857214
4.190000      0.009212      0.008952      1.375966      1.386135      1.422293      182.802776      182.290060
4.200000      0.009271      0.009015      1.365114      1.375419      1.412062      183.239809      182.725648
4.210000      0.009329      0.009077      1.354058      1.364498      1.401620      183.679729      183.164181
4.220000      0.009389      0.009141      1.343894      1.354476      1.392100      184.122262      183.605416
4.230000      0.009454      0.009210      1.335384      1.346119      1.384290      184.567113      184.049080
4.240000      0.009525      0.009285      1.328820      1.339724      1.378496      185.013976      184.494880
4.250000      0.009603      0.009367      1.324420      1.335511      1.374945      185.462483      184.942454
4.260000      0.009689      0.009455      1.322276      1.333572      1.373735      185.912213      185.391383
4.270000      0.009783      0.009551      1.322363      1.333884      1.374846      186.362742      185.841247
4.280000      0.009885      0.009654      1.324727      1.336493      1.378329      186.813649      186.291626
4.290000      0.009997      0.009766      1.329580      1.341616      1.384411      187.264516      186.742103
4.300000      0.010117      0.009885      1.336788      1.349118      1.392958      187.714893      187.192225
4.310000      0.010245      0.010011      1.345903      1.358548      1.403510      188.164272      187.641476
4.320000      0.010380      0.010142      1.356434      1.369414      1.415563      188.612356      188.089552
4.330000      0.010519      0.010276      1.367715      1.381042      1.428428      189.059056      188.536361
4.340000      0.010659      0.010411      1.378890      1.392570      1.441214      189.504291      188.981826
4.350000      0.010797      0.010543      1.389316      1.403351      1.453251      189.948005      189.425917
4.360000      0.010930      0.010672      1.398433      1.412815      1.463948      190.390431      189.868914
4.370000      0.011056      0.010793      1.405615      1.420328      1.472641      190.831954      190.311248
4.380000      0.011172      0.010907      1.410514      1.425537      1.478952      191.272970      190.753344
4.390000      0.011277      0.011011      1.413198      1.428508      1.482942      191.713873      191.195622
4.400000      0.011373      0.011107      1.414090      1.429664      1.485039      192.155065      191.638497
4.410000      0.011462      0.011196      1.413743      1.429564      1.485818      192.596864      192.082279
4.420000      0.011545      0.011280      1.412797      1.428854      1.485946      193.039381      192.527056
4.430000      0.011626      0.011363      1.411841      1.428128      1.486039      193.482620      192.972804
4.440000      0.011706      0.011445      1.411266      1.427783      1.486511      193.926549      193.419461
4.450000      0.011787      0.011529      1.411621      1.428375      1.487943      194.371132      193.866958
4.460000      0.011873      0.011617      1.413386      1.430390      1.490850      194.816286      194.315162
4.470000      0.011966      0.011712      1.417037      1.434314      1.495744      195.261676      194.763684
4.480000      0.012070      0.011816      1.423079      1.440661      1.503175      195.706886      195.212067
4.490000      0.012186      0.011930      1.431647      1.449571      1.513301      196.151490      195.659863
4.500000      0.012313      0.012055      1.442245      1.460545      1.525614      196.595056      196.106635
4.510000      0.012448      0.012187      1.453906      1.472608      1.539104      197.037161      196.551977
4.520000      0.012585      0.012322      1.465695      1.484812      1.552785      197.477663      196.995795
4.530000      0.012721      0.012455      1.476581      1.496113      1.565563      197.916808      197.438391
4.540000      0.012850      0.012584      1.485803      1.505738      1.576620      198.354890      197.880106
4.550000      0.012973      0.012706      1.493336      1.513658      1.585917      198.792183      198.321249
4.560000      0.013091      0.012823      1.499493      1.520188      1.593772      199.228966      198.762121
4.570000      0.013203      0.012935      1.504557      1.525612      1.600474      199.665470      199.202961
4.580000      0.013311      0.013043      1.508850      1.530253      1.606355      200.101780      199.643853
4.590000      0.013415      0.013147      1.512673      1.534416      1.611727      200.537951      200.084854
4.600000      0.013517      0.013247      1.516089      1.538164      1.616654      200.974035      200.526023
4.610000      0.013616      0.013344      1.519222      1.541621      1.621261      201.410086      200.967420
4.620000      0.013713      0.013439      1.522495      1.545214      1.625996      201.846157      201.409094
4.630000      0.013810      0.013533      1.526097      1.549138      1.631063      202.282217      201.851007
4.640000      0.013907      0.013627      1.530023      1.553387      1.636460      202.718060      202.292929
4.650000      0.014004      0.013721      1.534145      1.557832      1.642056      203.153641      202.734783
4.660000      0.014097      0.013812      1.537861      1.561866      1.647218      203.589041      203.176627
4.670000      0.014185      0.013899      1.540488      1.564794      1.651218      204.024329      203.618526
4.680000      0.014266      0.013979      1.541529      1.566114      1.653527      204.459686      204.060662
4.690000      0.014336      0.014050      1.540488      1.565320      1.653612      204.895489      204.503411
4.700000      0.014394      0.014112      1.537062      1.562105      1.651145      205.332137      204.947163
4.710000      0.014441      0.014164      1.531358      1.556574      1.646235      205.770036      205.392303
4.720000      0.014480      0.014209      1.524010      1.549374      1.639561      206.209612      205.839206
4.730000      0.014514      0.014250      1.515670      1.541168      1.631827      206.651229      206.288189
4.740000      0.014550      0.014292      1.507460      1.533095      1.624243      207.094927      206.739251
4.750000      0.014594      0.014339      1.500463      1.526261      1.617986      207.540749      207.192429
4.760000      0.014650      0.014397      1.495432      1.521432      1.613876      207.988335      207.647411
4.770000      0.014720      0.014467      1.492950      1.519204      1.612550      208.437096      208.103673
4.780000      0.014805      0.014550      1.492674      1.519227      1.613641      208.886444      208.560702
4.790000      0.014898      0.014640      1.493883      1.520770      1.616371      209.336030      209.018217
4.800000      0.014997      0.014735      1.495893      1.523134      1.619993      209.785763      209.476186
4.810000      0.015097      0.014832      1.498252      1.525856      1.624003      210.235572      209.934579
4.820000      0.015198      0.014930      1.500973      1.528946      1.628405      210.685396      210.393355
4.830000      0.015302      0.015031      1.504528      1.532882      1.633696      211.135174      210.852477
4.840000      0.015413      0.015137      1.509720      1.538481      1.640743      211.584782      211.311835
4.850000      0.015531      0.015251      1.516844      1.546044      1.649867      212.033834      211.771056
4.860000      0.015657      0.015373      1.525926      1.555599      1.661102      212.481765      212.229567
4.870000      0.015791      0.015501      1.536673      1.566848      1.674138      212.928343      212.687115
4.880000      0.015926      0.015631      1.548053      1.578743      1.687864      213.373495      213.143606
4.890000      0.016059      0.015760      1.559131      1.590331      1.701268      213.817157      213.598969
4.900000      0.016186      0.015884      1.569239      1.600932      1.713622      214.259506      214.053358
4.910000      0.016302      0.016000      1.577721      1.609876      1.724206      214.700884      214.507071
4.920000      0.016407      0.016105      1.584106      1.616680      1.732501      215.141648      214.960399
4.930000      0.016499      0.016200      1.588420      1.621370      1.738526      215.582156      215.413626
4.940000      0.016582      0.016288      1.591310      1.624605      1.742988      216.022752      215.867046
4.950000      0.016660      0.016372      1.593472      1.627095      1.746646      216.463607      216.320824
4.960000      0.016739      0.016455      1.595744      1.629697      1.750424      216.904633      216.774889
4.970000      0.016821      0.016541      1.598684      1.632984      1.754940      217.345848      217.229295
4.980000      0.016909      0.016630      1.602404      1.637069      1.760324      217.787119      217.683949
4.990000      0.017003      0.016724      1.607025      1.642078      1.766713      218.228249      218.138688
5.000000      0.017102      0.016822      1.612417      1.647879      1.773970      218.669046      218.593355
5.010000      0.017206      0.016923      1.618549      1.654442      1.782064      219.109353      219.047836
5.020000      0.017315      0.017028      1.625472      1.661818      1.791053      219.549040      219.502034
5.030000      0.017430      0.017137      1.633167      1.669991      1.800920      219.987966      219.955854
5.040000      0.017548      0.017248      1.641145      1.678456      1.811121      220.425995      220.409207
5.050000      0.017663      0.017356      1.648614      1.686406      1.820779      220.862986      220.862026
5.060000      0.017771      0.017458      1.654896      1.693142      1.829130      221.299067      221.314513
5.070000      0.017864      0.017547      1.658795      1.697438      1.834834      221.734690      221.767118
5.080000      0.017936      0.017618      1.659405      1.698359      1.836863      222.170243      222.220167
5.090000      0.017986      0.017670      1.656922      1.696102      1.835411      222.606297      222.674144
5.100000      0.018022      0.017710      1.652515      1.691861      1.831760      223.043498      223.129570
5.110000      0.018052      0.017743      1.647571      1.687055      1.827446      223.482334      223.586765
5.120000      0.018084      0.017779      1.643594      1.683227      1.824150      223.922578      224.045405
5.130000      0.018129      0.017825      1.642017      1.681852      1.823490      224.363785      224.505053
5.140000      0.018189      0.017884      1.643046      1.683146      1.825725      224.805499      224.965291
5.150000      0.018260      0.017952      1.645700      1.686110      1.829793      225.247211      225.425742
5.160000      0.018334      0.018022      1.648412      1.689144      1.833972      225.688425      225.886097
5.170000      0.018400      0.018087      1.649469      1.690494      1.836361      226.129233      226.346565
5.180000      0.018451      0.018138      1.647700      1.688955      1.835641      226.570208      226.807783
5.190000      0.018485      0.018174      1.642907      1.684320      1.831570      227.011986      227.270431
5.200000      0.018505      0.018199      1.635876      1.677389      1.824997      227.454976      227.734869
5.210000      0.018519      0.018218      1.628067      1.669655      1.817528      227.899535      228.201366
5.220000      0.018532      0.018236      1.620565      1.662226      1.810357      228.345844      228.670016
5.230000      0.018550      0.018259      1.614243      1.655996      1.804455      228.793675      229.140535
5.240000      0.018577      0.018289      1.609762      1.651644      1.800559      229.242738      229.612598
5.250000      0.018613      0.018328      1.607314      1.649367      1.798891      229.692721      230.085896
5.260000      0.018663      0.018378      1.607309      1.649588      1.799914      230.143316      230.560122
5.270000      0.018728      0.018442      1.610241      1.652815      1.804193      230.594196      231.034949
5.280000      0.018812      0.018522      1.616467      1.659419      1.812141      231.044850      231.509887
5.290000      0.018915      0.018620      1.625917      1.669332      1.823700      231.494637      231.984350
5.300000      0.019036      0.018733      1.638243      1.682201      1.838502      231.942906      232.457792
5.310000      0.019167      0.018855      1.652086      1.696637      1.855041      232.389266      232.929965
5.320000      0.019296      0.018974      1.665247      1.710381      1.870860      232.833343      233.400708
5.330000      0.019412      0.019082      1.676078      1.721742      1.884105      233.275199      233.870293
5.340000      0.019504      0.019169      1.682858      1.728948      1.892827      233.715566      234.339519
5.350000      0.019564      0.019227      1.684257      1.730626      1.895498      234.155266      234.809183
5.360000      0.019589      0.019254      1.680340      1.726836      1.892159      234.595139      235.280065
5.370000      0.019586      0.019256      1.672119      1.718610      1.883917      235.036050      235.752924
5.380000      0.019559      0.019236      1.660581      1.706959      1.871863      235.478797      236.228394
5.390000      0.019515      0.019199      1.646911      1.693098      1.857320      235.923693      236.706706
5.400000      0.019464      0.019156      1.632723      1.678684      1.842104      236.370907      237.188007
5.410000      0.019411      0.019110      1.618879      1.664605      1.827189      236.820506      237.672377
5.420000      0.019355      0.019062      1.605343      1.650822      1.812530      237.272279      238.159624
5.430000      0.019293      0.019010      1.591741      1.636951      1.797701      237.725958      238.649559
5.440000      0.019220      0.018948      1.577305      1.622196      1.781816      238.181680      239.142345
5.450000      0.019127      0.018868      1.560783      1.605268      1.763440      238.639965      239.638427
5.460000      0.019006      0.018764      1.541422      1.585383      1.741695      239.101387      240.138219
5.470000      0.018871      0.018648      1.521350      1.564729      1.718969      239.566560      240.642106
5.480000      0.018758      0.018551      1.505949      1.548842      1.701356      240.036177      241.150424
5.490000      0.018699      0.018501      1.499802      1.542444      1.694067      240.509946      241.662475
5.500000      0.018729      0.018529      1.507489      1.550264      1.702358      240.984451      242.175360
5.510000      0.018878      0.018659      1.532756      1.576175      1.730556      241.455544      242.686037
5.520000      0.019017      0.018774      1.555492      1.599501      1.755980      241.918948      243.191849
5.530000      0.018718      0.018505      1.512974      1.555670      1.707480      242.370230      243.690810
5.540000      0.018625      0.018432      1.501276      1.543591      1.694048      242.813171      244.190102
5.550000      0.018102      0.017970      1.433037      1.473130      1.615691      243.305629      244.729902
5.560000      0.017843      0.017738      1.399778      1.438787      1.577490      243.781065      245.257044
5.570000      0.017485      0.017390      1.359867      1.397344      1.530601      244.287035      245.811434
5.580000      0.016364      0.016376      1.212889      1.245918      1.363357      244.761297      246.340656
5.590000      0.016068      0.016120      1.187645      1.219569      1.333083      245.249996      246.900617
5.600000      0.014519      0.014721      1.008894      1.035239      1.128915      245.851942      247.541834
5.610000      0.012655      0.013047      0.803938      0.824296      0.896685      246.396835      248.144324
5.620000      0.010704      0.011312      0.626389      0.641334      0.694478      247.061473      248.856202
5.630000      0.008391      0.009278      0.440265      0.449907      0.484197      247.877919      249.673049
5.640000      0.006408      0.007520      0.311775      0.317790      0.339181      248.889622      250.649530
5.650000      0.004519      0.005828      0.212153      0.215503      0.227419      250.201859      251.815404
5.660000      0.003185      0.004616      0.158104      0.160041      0.166934      251.687758      253.114917
5.670000      0.002124      0.003599      0.127907      0.128982      0.132809      253.629317      254.739765
5.680000      0.001545      0.002970      0.126253      0.126943      0.129398      255.601461      256.386267
5.690000      0.001080      0.002435      0.149370      0.149806      0.151361      257.639366      258.101478
5.700000      0.000772      0.002004      0.184186      0.184470      0.185480      259.127896      259.397614
5.710000      0.000809      0.001629      0.277888      0.278092      0.278816      260.435171      260.570044
5.720000      0.000819      0.001236      0.390157      0.390292      0.390774      261.688776      261.715115
5.730000      0.000816      0.001104      0.496070      0.496186      0.496599      262.541197      262.523813
5.740000      0.001041      0.001070      0.712565      0.712702      0.713190      263.203901      263.169270
5.750000      0.001281      0.001051      0.961918      0.962088      0.962690      263.885611      263.834516
5.760000      0.001354      0.001210      1.092621      1.092824      1.093547      264.532029      264.470983
5.770000      0.001386      0.001371      1.207984      1.208218      1.209051      265.031507      264.973290
5.780000      0.001466      0.001527      1.478030      1.478306      1.479288      265.501055      265.447268
5.790000      0.001496      0.001534      1.578845      1.579128      1.580133      266.012648      265.959943
5.800000      0.001432      0.001484      1.573208      1.573470      1.574402      266.469264      266.421383
5.810000      0.001427      0.001490      1.631648      1.631910      1.632843      266.926280      266.882398
5.820000      0.001416      0.001447      1.681821      1.682074      1.682972      267.396443      267.355571
5.830000      0.001378      0.001429      1.714368      1.714610      1.715474      267.875825      267.837418
5.840000      0.001306      0.001421      1.755505      1.755735      1.756551      268.334074      268.299231
5.850000      0.001235      0.001395      1.810212      1.810426      1.811187      268.772085      268.741321
5.860000      0.001150      0.001337      1.879063      1.879255      1.879937      269.206994      269.180039
5.870000      0.001067      0.001248      1.880892      1.881058      1.881649      269.654707      269.630759
5.880000      0.000964      0.001145      1.890977      1.891115      1.891606      270.086673      270.066038
5.890000      0.000875      0.001067      1.902268      1.902385      1.902803      270.530259      270.512284
5.900000      0.000779      0.000956      1.883816      1.883909      1.884243      270.964171      270.948930
5.910000      0.000704      0.000867      1.887205      1.887282      1.887555      271.407142      271.394081
5.920000      0.000619      0.000774      1.886246      1.886307      1.886522      271.851736      271.840634
5.930000      0.000537      0.000703      1.905373      1.905421      1.905592      272.300985      272.291531
5.940000      0.000454      0.000622      1.911889      1.911925      1.912055      272.739716      272.732058
5.950000      0.000371      0.000541      1.925846      1.925873      1.925967      273.172484      273.166612
5.960000      0.000303      0.000458      1.921296      1.921315      1.921381      273.614482      273.609968
5.970000      0.000246      0.000372      1.899643      1.899655      1.899698      274.058519      274.055180
5.980000      0.000198      0.000305      1.891185      1.891193      1.891222      274.504044      274.501742
5.990000      0.000165      0.000247      1.883144      1.883149      1.883169      274.951083      274.949699
6.000000      0.000152      0.000200      1.875008      1.875012      1.875026      275.399663      275.399093
