# Output from "simple" SuperMix based program
# Scanning BIAS from 0.010000 to 3.000000 mVolt in steps of 0.010000 mVolt
#
# FREQUENCY 650.000000 GHz
# BIAS 2.000000 mV
# LO_POWER 180.000000 nW
#
# Data from mixer.conf
#
# TEMP 2.500000 K
# Z0 20.000000 Ohms
# IF_FREQ 5.000000 GHz
# IF_Z0 50.000000 Ohms
# HARMONICS 1
#
# IV_CURVE idc.dat
# KK_CURVE ikk.dat
# RNA 20.000000 Ohm*um^2
# SCAP 65.000000 fF/um^2
# AREA 1.000000 um^2
# VGAP 2.820000 mV
#
# TUNER_TYPE BEL_WITH_RFCHOKE
# BELITSKY_INPUT_STRIP 48.000000 6.000000
# BELITSKY_TUNING_STRIP 14.000000 5.000000
# RF_CHOKE_TYPE RADIAL
# RADIAL_CHOKE_TYPE STRAIGHT
# RADIAL_CHOKE_INPUT 39.000000 3.000000 3.000000
# RADIAL_CHOKE_FAN 30.000000 180.000000
#
# TOP_DEFAULT NB
# TOP_THICKNESS 4000.000000
# GROUND_DEFAULT NB
# GROUND_THICKNESS 4000.000000
# INSUL_DEFAULT SIO
# INSUL_THICKNESS 4250.000000
# COVER_DEFAULT AIR
# COVER_THICKNESS 100000.000000
#
# NB_PROPERTIES 3.050000 9.400000 5.000000
# NBTIN_PROPERTIES 5.000000 15.750000 30.000000
# SIO_PROPERTIES 5.800000 0.000400
# AIR_PROPERTIES 1.000000 0.000000
#
# End of configuration file data
# 
# building the mixer...
# building tuner...
# tuner complete
# building IV curves...
# IV curves complete
# built mixer
# Junction 1 Embedding Impedance : 0.098111+-0.120007i
# Junction 2 Embedding Impedance : 0.091201+-0.235358i
# 
# Results:
#
# BIAS (mVolt)| LSB Gain | USB Gain | IF Output 0K (K)| IF Output 77K (K)| IF Output 297K (K)| DC Current (junc 1) (uA)| DC Current (junc 2) (uA)
0.010000      0.000652      0.000861      0.041393      0.041466      0.041721      0.666844      0.657737
0.020000      0.001302      0.001715      0.041135      0.041424      0.042440      1.337025      1.318297
0.030000      0.001951      0.002557      0.040740      0.041386      0.043654      2.013361      1.984010
0.040000      0.002598      0.003385      0.040277      0.041413      0.045404      2.698228      2.656833
0.050000      0.003246      0.004198      0.039823      0.041581      0.047754      3.393817      3.338597
0.060000      0.003899      0.004998      0.039446      0.041955      0.050764      4.100793      4.029724
0.070000      0.004566      0.005793      0.039243      0.042640      0.054566      4.818731      4.729677
0.080000      0.005255      0.006592      0.039293      0.043730      0.059310      5.546996      5.437831
0.090000      0.005976      0.007405      0.039650      0.045303      0.065151      6.283169      6.151939
0.100000      0.006743      0.008247      0.040418      0.047503      0.072380      7.023838      6.868938
0.110000      0.007571      0.009137      0.041693      0.050484      0.081351      7.765530      7.585855
0.120000      0.008476      0.010089      0.043559      0.054400      0.092465      8.503004      8.298202
0.130000      0.009473      0.011122      0.046120      0.059445      0.106233      9.230308      9.000995
0.140000      0.010575      0.012248      0.049462      0.065811      0.123213      9.941928      9.689818
0.150000      0.011795      0.013483      0.053690      0.073727      0.144076      10.633206      10.360980
0.160000      0.013151      0.014845      0.058972      0.083531      0.169755      11.300077      11.011302
0.170000      0.014669      0.016359      0.065570      0.095716      0.201557      11.938825      11.637926
0.180000      0.016379      0.018056      0.073827      0.110938      0.241224      12.545767      12.237855
0.190000      0.018300      0.019958      0.084059      0.129844      0.290580      13.117436      12.808181
0.200000      0.020443      0.022073      0.096565      0.153088      0.351520      13.651275      13.346744
0.210000      0.022814      0.024410      0.111639      0.181347      0.426062      14.147640      13.853915
0.220000      0.025415      0.026970      0.129601      0.215358      0.516409      14.607726      14.330698
0.230000      0.028275      0.029784      0.151092      0.256414      0.626148      15.032691      14.777967
0.240000      0.031436      0.032890      0.176977      0.306244      0.760030      15.423481      15.196354
0.250000      0.034914      0.036307      0.208032      0.366475      0.922678      15.780974      15.586353
0.260000      0.038707      0.040032      0.244914      0.438557      1.118321      16.106450      15.948763
0.270000      0.042793      0.044044      0.288050      0.523554      1.350262      16.402481      16.285526
0.280000      0.047138      0.048310      0.337695      0.622206      1.620937      16.671799      16.598689
0.290000      0.051733      0.052822      0.394402      0.735782      1.934138      16.916968      16.890168
0.300000      0.056559      0.057562      0.458584      0.865290      2.292952      17.140278      17.161773
0.310000      0.061592      0.062506      0.530482      1.011397      2.699549      17.343890      17.415213
0.320000      0.066801      0.067623      0.610178      1.174448      3.155195      17.529815      17.652078
0.330000      0.072144      0.072873      0.697418      1.354107      3.659259      17.699859      17.873814
0.340000      0.077574      0.078209      0.791710      1.549531      4.209674      17.855739      18.081798
0.350000      0.083031      0.083574      0.892024      1.758782      4.801312      17.999083      18.277360
0.360000      0.088449      0.088902      0.996971      1.979145      5.426810      18.131398      18.461787
0.370000      0.093797      0.094164      1.105682      2.208895      6.081426      18.254136      18.636325
0.380000      0.099059      0.099344      1.217496      2.446685      6.761416      18.368516      18.802042
0.390000      0.104211      0.104418      1.331530      2.690689      7.461632      18.475423      18.959737
0.400000      0.109218      0.109349      1.446496      2.938228      8.174529      18.575686      19.110168
0.410000      0.114016      0.114079      1.560259      3.184879      8.887637      18.670103      19.254072
0.420000      0.118579      0.118579      1.671474      3.427774      9.592755      18.759439      19.392157
0.430000      0.122924      0.122866      1.779957      3.666431      10.288344      18.844430      19.525115
0.440000      0.127067      0.126958      1.885681      3.900690      10.973779      18.925646      19.653496
0.450000      0.131025      0.130869      1.988630      4.130410      11.648489      19.003468      19.777687
0.460000      0.134796      0.134598      2.088343      4.354539      12.309340      19.078260      19.898067
0.470000      0.138355      0.138119      2.183651      4.570547      12.949027      19.150370      20.015002
0.480000      0.141701      0.141433      2.274082      4.777347      13.564301      19.220134      20.128849
0.490000      0.144846      0.144551      2.359670      4.974922      14.154966      19.287880      20.239958
0.500000      0.147815      0.147495      2.440820      5.164031      14.723033      19.353841      20.348589
0.510000      0.150639      0.150298      2.518360      5.346345      15.273124      19.418179      20.454929
0.520000      0.153331      0.152973      2.592497      5.522240      15.806209      19.481047      20.559161
0.530000      0.155886      0.155512      2.662855      5.690856      16.319729      19.542594      20.661461
0.540000      0.158308      0.157922      2.729443      5.852155      16.813480      19.602963      20.762004
0.550000      0.160607      0.160212      2.792410      6.006401      17.288135      19.662289      20.860957
0.560000      0.162800      0.162397      2.852216      6.154535      17.746311      19.720668      20.958443
0.570000      0.164909      0.164500      2.909531      6.297950      18.191955      19.778168      21.054556
0.580000      0.166941      0.166527      2.964496      6.436920      18.625801      19.834852      21.149392
0.590000      0.168894      0.168477      3.017012      6.571198      19.047079      19.890786      21.243042
0.600000      0.170773      0.170354      3.067157      6.700921      19.456136      19.946032      21.335597
0.610000      0.172582      0.172163      3.115028      6.826270      19.853450      20.000646      21.427142
0.620000      0.174337      0.173919      3.161174      6.948417      20.242372      20.054659      21.517730
0.630000      0.176061      0.175643      3.206309      7.068903      20.627359      20.108091      21.607403
0.640000      0.177757      0.177341      3.250605      7.188100      21.009472      20.160960      21.696197
0.650000      0.179425      0.179011      3.294033      7.305926      21.388453      20.213282      21.784152
0.660000      0.181063      0.180651      3.336437      7.422027      21.763242      20.265075      21.871304
0.670000      0.182664      0.182255      3.377616      7.535936      22.132448      20.316354      21.957689
0.680000      0.184232      0.183826      3.417659      7.647835      22.496579      20.367139      22.043343
0.690000      0.185771      0.185369      3.456689      7.757985      22.856374      20.417448      22.128299
0.700000      0.187280      0.186882      3.494675      7.866304      23.211575      20.467298      22.212588
0.710000      0.188761      0.188367      3.531669      7.972894      23.562461      20.516708      22.296245
0.720000      0.190218      0.189829      3.567811      8.078059      23.909914      20.565694      22.379301
0.730000      0.191655      0.191272      3.603237      8.182098      24.254796      20.614271      22.461785
0.740000      0.193080      0.192702      3.638222      8.285623      24.598915      20.662442      22.543712
0.750000      0.194499      0.194127      3.673001      8.389166      24.943831      20.710209      22.625099
0.760000      0.195913      0.195546      3.707593      8.492762      25.289648      20.757573      22.705958
0.770000      0.197321      0.196959      3.741972      8.596353      25.636187      20.804534      22.786303
0.780000      0.198719      0.198363      3.776010      8.699637      25.982539      20.851095      22.866147
0.790000      0.200106      0.199756      3.809621      8.802407      26.328074      20.897256      22.945505
0.800000      0.201484      0.201139      3.842906      8.904894      26.673474      20.943019      23.024388
0.810000      0.202854      0.202516      3.875914      9.007201      27.019037      20.988388      23.102807
0.820000      0.204216      0.203884      3.908618      9.109262      27.364555      21.033365      23.180775
0.830000      0.205571      0.205244      3.941043      9.211131      27.710188      21.077952      23.258303
0.840000      0.206918      0.206597      3.973161      9.312733      28.055693      21.122153      23.335401
0.850000      0.208256      0.207942      4.004962      9.414042      28.400988      21.165970      23.412080
0.860000      0.209589      0.209281      4.036570      9.515340      28.746915      21.209404      23.488348
0.870000      0.210920      0.210618      4.068077      9.616844      29.094122      21.252458      23.564212
0.880000      0.212248      0.211952      4.099491      9.718567      29.442645      21.295133      23.639683
0.890000      0.213573      0.213283      4.130808      9.820497      29.792445      21.337431      23.714766
0.900000      0.214896      0.214612      4.162024      9.922624      30.143485      21.379354      23.789472
0.910000      0.216216      0.215939      4.193133      10.024931      30.495712      21.420903      23.863807
0.920000      0.217532      0.217261      4.224090      10.127304      30.848771      21.462079      23.937780
0.930000      0.218842      0.218577      4.254807      10.229530      31.202008      21.502884      24.011399
0.940000      0.220144      0.219886      4.285260      10.331547      31.555228      21.543320      24.084672
0.950000      0.221440      0.221189      4.315465      10.433381      31.908499      21.583387      24.157607
0.960000      0.222729      0.222484      4.345388      10.534950      32.261559      21.623086      24.230211
0.970000      0.224012      0.223773      4.375064      10.636329      32.614632      21.662420      24.302491
0.980000      0.225291      0.225058      4.404604      10.737785      32.968528      21.701388      24.374451
0.990000      0.226567      0.226342      4.434066      10.839451      33.323646      21.739993      24.446099
1.000000      0.227842      0.227623      4.463446      10.941320      33.679967      21.778236      24.517438
1.010000      0.229114      0.228902      4.492743      11.043383      34.037454      21.816117      24.588476
1.020000      0.230383      0.230178      4.521954      11.145628      34.396067      21.853637      24.659217
1.030000      0.231651      0.231452      4.551070      11.248034      34.755734      21.890799      24.729667
1.040000      0.232914      0.232722      4.580049      11.350489      35.116108      21.927603      24.799832
1.050000      0.234172      0.233987      4.608824      11.452825      35.476661      21.964049      24.869718
1.060000      0.235424      0.235246      4.637371      11.554977      35.837179      22.000139      24.939330
1.070000      0.236669      0.236499      4.665692      11.656940      36.197645      22.035874      25.008674
1.080000      0.237910      0.237746      4.693805      11.758756      36.558173      22.071254      25.077754
1.090000      0.239146      0.238990      4.721769      11.860567      36.919204      22.106280      25.146575
1.100000      0.240379      0.240230      4.749638      11.962503      37.281132      22.140953      25.215142
1.110000      0.241610      0.241469      4.777427      12.064598      37.644060      22.175273      25.283458
1.120000      0.242839      0.242704      4.805133      12.166844      38.007958      22.209241      25.351529
1.130000      0.244065      0.243938      4.832754      12.269232      38.372791      22.242858      25.419359
1.140000      0.245288      0.245169      4.860289      12.371752      38.738525      22.276124      25.486952
1.150000      0.246509      0.246397      4.887725      12.474371      39.105054      22.309041      25.554313
1.160000      0.247725      0.247621      4.915020      12.576975      39.472011      22.341607      25.621446
1.170000      0.248936      0.248839      4.942113      12.679406      39.838894      22.373825      25.688355
1.180000      0.250140      0.250052      4.968980      12.781593      40.205472      22.405694      25.755046
1.190000      0.251339      0.251258      4.995634      12.883565      40.571825      22.437216      25.821522
1.200000      0.252533      0.252460      5.022120      12.985433      40.938301      22.468389      25.887787
1.210000      0.253724      0.253659      5.048498      13.087344      41.305351      22.499215      25.953845
1.220000      0.254912      0.254855      5.074796      13.189369      41.673196      22.529692      26.019700
1.230000      0.256097      0.256049      5.101018      13.291516      42.041855      22.559823      26.085354
1.240000      0.257280      0.257240      5.127163      13.393777      42.411302      22.589606      26.150812
1.250000      0.258461      0.258428      5.153230      13.496146      42.781508      22.619042      26.216077
1.260000      0.259639      0.259614      5.179215      13.598612      43.152436      22.648131      26.281154
1.270000      0.260813      0.260798      5.205105      13.701132      43.523947      22.676873      26.346045
1.280000      0.261984      0.261977      5.230856      13.803588      43.895656      22.705267      26.410754
1.290000      0.263148      0.263149      5.256378      13.905740      44.266795      22.733315      26.475285
1.300000      0.264303      0.264314      5.281603      14.007398      44.636749      22.761016      26.539641
1.310000      0.265452      0.265471      5.306578      14.108678      45.005881      22.788369      26.603826
1.320000      0.266597      0.266624      5.331408      14.209857      45.375062      22.815375      26.667843
1.330000      0.267738      0.267775      5.356157      14.311097      45.744803      22.842032      26.731696
1.340000      0.268877      0.268923      5.380839      14.412434      46.115217      22.868340      26.795386
1.350000      0.270014      0.270069      5.405455      14.513868      46.486298      22.894299      26.858918
1.360000      0.271148      0.271212      5.430005      14.615393      46.858024      22.919907      26.922295
1.370000      0.272280      0.272353      5.454487      14.717003      47.230371      22.945165      26.985519
1.380000      0.273408      0.273491      5.478898      14.818685      47.603292      22.970072      27.048594
1.390000      0.274534      0.274626      5.503218      14.920382      47.976601      22.994626      27.111523
1.400000      0.275655      0.275756      5.527389      15.021931      48.349765      23.018827      27.174308
1.410000      0.276768      0.276879      5.551282      15.122978      48.721640      23.042676      27.236954
1.420000      0.277871      0.277992      5.574818      15.223296      49.091482      23.066170      27.299462
1.430000      0.278967      0.279098      5.598100      15.323162      49.460175      23.089308      27.361837
1.440000      0.280059      0.280200      5.621269      15.422952      49.828925      23.112091      27.424080
1.450000      0.281149      0.281299      5.644371      15.522792      50.198130      23.134515      27.486195
1.460000      0.282236      0.282396      5.667414      15.622698      50.567845      23.156580      27.548185
1.470000      0.283320      0.283491      5.690398      15.722669      50.938056      23.178285      27.610052
1.480000      0.284402      0.284583      5.713324      15.822701      51.308750      23.199628      27.671799
1.490000      0.285482      0.285673      5.736190      15.922787      51.679898      23.220608      27.733429
1.500000      0.286558      0.286760      5.758989      16.022906      52.051425      23.241223      27.794945
1.510000      0.287631      0.287844      5.781702      16.123000      52.423145      23.261472      27.856349
1.520000      0.288699      0.288922      5.804229      16.222783      52.794117      23.281354      27.917645
1.530000      0.289755      0.289989      5.826346      16.321627      53.162290      23.300866      27.978834
1.540000      0.290798      0.291042      5.847971      16.419288      53.526853      23.320009      28.039921
1.550000      0.291832      0.292088      5.869314      16.516347      53.889693      23.338778      28.100907
1.560000      0.292863      0.293130      5.890567      16.613336      54.252535      23.357173      28.161795
1.570000      0.293892      0.294169      5.911763      16.710347      54.615674      23.375191      28.222589
1.580000      0.294918      0.295206      5.932907      16.807387      54.979130      23.392829      28.283290
1.590000      0.295941      0.296241      5.953998      16.904455      55.342896      23.410086      28.343903
1.600000      0.296962      0.297273      5.975037      17.001549      55.706962      23.426959      28.404428
1.610000      0.297980      0.298303      5.996021      17.098655      56.071274      23.443445      28.464870
1.620000      0.298995      0.299329      6.016936      17.195733      56.435700      23.459543      28.525231
1.630000      0.300006      0.300352      6.037753      17.292692      56.799938      23.475250      28.585512
1.640000      0.301008      0.301366      6.058262      17.388928      57.161997      23.490562      28.645718
1.650000      0.301993      0.302363      6.078120      17.483448      57.518595      23.505479      28.705851
1.660000      0.302960      0.303342      6.097329      17.576240      57.869680      23.519997      28.765913
1.670000      0.303919      0.304313      6.116246      17.668320      58.218585      23.534113      28.825908
1.680000      0.304874      0.305280      6.135089      17.760316      58.567364      23.547824      28.885838
1.690000      0.305827      0.306245      6.153877      17.852278      58.916184      23.561125      28.945706
1.700000      0.306776      0.307207      6.172614      17.944213      59.265061      23.574014      29.005515
1.710000      0.307723      0.308167      6.191303      18.036123      59.613999      23.586488      29.065268
1.720000      0.308668      0.309124      6.209943      18.128009      59.962993      23.598542      29.124968
1.730000      0.309609      0.310078      6.228521      18.219826      60.311897      23.610172      29.184617
1.740000      0.310547      0.311028      6.247014      18.311501      60.660462      23.621376      29.244218
1.750000      0.311479      0.311974      6.265353      18.402831      61.008006      23.632149      29.303774
1.760000      0.312394      0.312901      6.283053      18.492381      61.349769      23.642488      29.363287
1.770000      0.313276      0.313797      6.299523      18.578395      61.679898      23.652389      29.422760
1.780000      0.314133      0.314667      6.315004      18.661560      62.000653      23.661848      29.482196
1.790000      0.314979      0.315526      6.330154      18.743805      62.318418      23.670860      29.541599
1.800000      0.315822      0.316383      6.345238      18.825908      62.635775      23.679418      29.600972
1.810000      0.316662      0.317236      6.360266      18.907893      62.952797      23.687519      29.660318
1.820000      0.317499      0.318087      6.375238      18.989761      63.269484      23.695156      29.719640
1.830000      0.318333      0.318934      6.390157      19.071511      63.585831      23.702324      29.778942
1.840000      0.319164      0.319779      6.405019      19.153130      63.901786      23.709018      29.838226
1.850000      0.319991      0.320620      6.419798      19.234540      64.217085      23.715232      29.897495
1.860000      0.320813      0.321456      6.434470      19.315659      64.531451      23.720961      29.956754
1.870000      0.321627      0.322284      6.448869      19.395985      64.843198      23.726199      30.016004
1.880000      0.322414      0.323084      6.462253      19.473278      65.144830      23.730940      30.075248
1.890000      0.323158      0.323843      6.474028      19.545718      65.430221      23.735179      30.134491
1.900000      0.323875      0.324574      6.484759      19.614989      65.704984      23.738910      30.193736
1.910000      0.324581      0.325295      6.495177      19.683283      65.976438      23.742124      30.252986
1.920000      0.325282      0.326010      6.505434      19.751055      66.246102      23.744814      30.312246
1.930000      0.325973      0.326715      6.515380      19.817843      66.512419      23.746974      30.371519
1.940000      0.326640      0.327396      6.524459      19.881939      66.769643      23.748595      30.430809
1.950000      0.327274      0.328045      6.532322      19.942268      67.014139      23.749670      30.490119
1.960000      0.327888      0.328673      6.539453      20.000278      67.250750      23.750192      30.549453
1.970000      0.328492      0.329293      6.546321      20.057397      67.484265      23.750151      30.608817
1.980000      0.329090      0.329905      6.552977      20.113774      67.715178      23.749540      30.668214
1.990000      0.329669      0.330499      6.559011      20.168145      67.939223      23.748351      30.727650
2.000000      0.330203      0.331048      6.563348      20.217179      68.145159      23.746576      30.787131
2.010000      0.330681      0.331540      6.565542      20.259478      68.328238      23.744207      30.846664
2.020000      0.331126      0.331999      6.566515      20.297854      68.497907      23.741236      30.906255
2.030000      0.331556      0.332444      6.567014      20.334598      68.661882      23.737653      30.965912
2.040000      0.331973      0.332875      6.567097      20.369881      68.820727      23.733450      31.025643
2.050000      0.332361      0.333277      6.566116      20.401676      68.967583      23.728616      31.085455
2.060000      0.332681      0.333612      6.562616      20.425445      69.087069      23.723145      31.145353
2.070000      0.332927      0.333871      6.556278      20.440140      69.175600      23.717025      31.205347
2.080000      0.333130      0.334088      6.548400      20.449772      69.246703      23.710249      31.265448
2.090000      0.333312      0.334283      6.539787      20.456839      69.308810      23.702806      31.325664
2.100000      0.333470      0.334454      6.530397      20.461190      69.361396      23.694688      31.386009
2.110000      0.333573      0.334571      6.519006      20.458974      69.391393      23.685889      31.446498
2.120000      0.333566      0.334576      6.503436      20.443317      69.375431      23.676401      31.507143
2.130000      0.333446      0.334468      6.483634      20.413982      69.312639      23.666220      31.567963
2.140000      0.333263      0.334297      6.461597      20.377214      69.224161      23.655340      31.628981
2.150000      0.333046      0.334090      6.438391      20.336344      69.121288      23.643756      31.690217
2.160000      0.332789      0.333844      6.413850      20.290838      69.002191      23.631466      31.751698
2.170000      0.332435      0.333499      6.385774      20.233704      68.843061      23.618467      31.813451
2.180000      0.331902      0.332974      6.351044      20.154996      68.609984      23.604761      31.875505
2.190000      0.331202      0.332281      6.310215      20.056383      68.308537      23.590351      31.937900
2.200000      0.330410      0.331495      6.266185      19.947012      67.969807      23.575246      32.000680
2.210000      0.329557      0.330648      6.220222      19.830889      67.607409      23.559454      32.063894
2.220000      0.328633      0.329727      6.171871      19.706544      67.216309      23.542990      32.127596
2.230000      0.327532      0.328629      6.117313      19.561733      66.754693      23.525870      32.191846
2.240000      0.326137      0.327233      6.052217      19.382506      66.174837      23.508113      32.256709
2.250000      0.324490      0.325583      5.978382      19.174484      65.495794      23.489753      32.322272
2.260000      0.322708      0.323797      5.900272      18.951907      64.766104      23.470838      32.388636
2.270000      0.320839      0.321921      5.819696      18.720544      64.005446      23.451412      32.455904
2.280000      0.318847      0.319919      5.735445      18.476483      63.200412      23.431528      32.524196
2.290000      0.316551      0.317611      5.641189      18.199248      62.280879      23.411244      32.593646
2.300000      0.313791      0.314834      5.531523      17.871238      61.186429      23.390624      32.664396
2.310000      0.310651      0.311675      5.409960      17.503606      59.955038      23.369788      32.736650
2.320000      0.307285      0.308286      5.282227      17.114760      58.649624      23.348873      32.810634
2.330000      0.303743      0.304717      5.150292      16.711002      57.291705      23.328019      32.886579
2.340000      0.299944      0.300887      5.011730      16.284392      55.853974      23.307374      32.964746
2.350000      0.295613      0.296520      4.857838      15.806475      54.238654      23.287087      33.045407
2.360000      0.290559      0.291426      4.683374      15.259935      52.386039      23.267341      33.128869
2.370000      0.284912      0.285735      4.493797      14.662273      50.355902      23.248443      33.215586
2.380000      0.278837      0.279611      4.295377      14.033746      48.217594      23.230734      33.306046
2.390000      0.272381      0.273104      4.090516      13.382044      45.997375      23.214553      33.400740
2.400000      0.265449      0.266118      3.877302      12.700757      43.673041      23.200236      33.500169
2.410000      0.257760      0.258372      3.648953      11.967429      41.167115      23.188122      33.604839
2.420000      0.249167      0.249719      3.403491      11.175313      38.456116      23.178663      33.715372
2.430000      0.239776      0.240267      3.146427      10.342290      35.601346      23.172639      33.832735
2.440000      0.229742      0.230174      2.884144      9.489218      32.674467      23.170883      33.957949
2.450000      0.219232      0.219607      2.622817      8.636393      29.745349      23.174213      34.091992
2.460000      0.208259      0.208582      2.364356      7.790162      26.835915      23.183399      34.235729
2.470000      0.196647      0.196923      2.106575      6.943451      23.921925      23.199208      34.389999
2.480000      0.184421      0.184656      1.852339      6.105947      21.037026      23.222766      34.555976
2.490000      0.171848      0.172047      1.608850      5.301795      18.264824      23.255899      34.735484
2.500000      0.159224      0.159395      1.382493      4.552523      15.680006      23.300521      34.930417
2.510000      0.146867      0.147018      1.178324      3.875291      13.342219      23.358528      35.142564
2.520000      0.134883      0.135021      0.996608      3.271405      11.256425      23.431769      35.373514
2.530000      0.123213      0.123345      0.834876      2.733157      9.396527      23.522133      35.624845
2.540000      0.111851      0.111981      0.691647      2.256114      7.747729      23.632668      35.899083
2.550000      0.100859      0.100991      0.566274      1.838548      6.304500      23.768037      36.200070
2.560000      0.090414      0.090551      0.459049      1.481657      5.071234      23.933070      36.531736
2.570000      0.080743      0.080885      0.370079      1.185816      4.049230      24.132680      36.897980
2.580000      0.071896      0.072043      0.297333      0.944297      3.215285      24.371875      37.302658
2.590000      0.063833      0.063985      0.238152      0.748315      2.539100      24.655808      37.749687
2.600000      0.056508      0.056663      0.190209      0.590147      1.994018      24.991424      38.244458
2.610000      0.049867      0.050024      0.151485      0.463068      1.556795      25.387478      38.793856
2.620000      0.043892      0.044049      0.120473      0.361965      1.209657      25.852961      39.404886
2.630000      0.038569      0.038723      0.095894      0.282446      0.937287      26.398037      40.085390
2.640000      0.033853      0.034003      0.076506      0.220289      0.724999      27.033888      40.843948
2.650000      0.029697      0.029841      0.061278      0.171971      0.560531      27.771930      41.689241
2.660000      0.026050      0.026187      0.049343      0.134549      0.433643      28.624865      42.630799
2.670000      0.022858      0.022988      0.039997      0.105631      0.336023      29.606349      43.678786
2.680000      0.020076      0.020198      0.032687      0.083336      0.261128      30.730125      44.843376
2.690000      0.017657      0.017771      0.026968      0.066161      0.203738      32.009662      46.134359
2.700000      0.015561      0.015667      0.022501      0.052954      0.159851      33.458266      47.561314
2.710000      0.013748      0.013847      0.019008      0.042786      0.126254      35.088957      49.133542
2.720000      0.012178      0.012270      0.016267      0.034930      0.100444      36.912065      50.857599
2.730000      0.010824      0.010909      0.014126      0.028875      0.080647      38.936408      52.738666
2.740000      0.009657      0.009736      0.012460      0.024205      0.065431      41.169571      54.781126
2.750000      0.008651      0.008724      0.011169      0.020597      0.053691      43.611693      56.983408
2.760000      0.007788      0.007856      0.010190      0.017833      0.044659      46.259450      59.341380
2.770000      0.007047      0.007111      0.009466      0.015724      0.037694      49.107474      61.849605
2.780000      0.006409      0.006469      0.008951      0.014130      0.032310      52.140451      64.494976
2.790000      0.005864      0.005921      0.008626      0.012962      0.028185      55.339186      67.261592
2.800000      0.005398      0.005452      0.008471      0.012147      0.025050      58.682175      70.131957
2.810000      0.005000      0.005052      0.008475      0.011630      0.022705      62.138401      73.080974
2.820000      0.004662      0.004712      0.008637      0.011381      0.021011      65.673695      76.081217
2.830000      0.004374      0.004422      0.008959      0.011375      0.019856      69.253900      79.105677
2.840000      0.004129      0.004177      0.009446      0.011600      0.019161      72.846122      82.129159
2.850000      0.003922      0.003969      0.010119      0.012063      0.018887      76.417863      85.126872
2.860000      0.003750      0.003797      0.011016      0.012795      0.019038      79.936651      88.073966
2.870000      0.003611      0.003659      0.012187      0.013837      0.019630      83.369920      90.945532
2.880000      0.003499      0.003548      0.013672      0.015223      0.020667      86.685362      93.716604
2.890000      0.003410      0.003460      0.015519      0.016993      0.022167      89.857096      96.367247
2.900000      0.003339      0.003391      0.017776      0.019190      0.024155      92.876397      98.891533
2.910000      0.003283      0.003336      0.020504      0.021872      0.026673      95.737756      101.285919
2.920000      0.003241      0.003297      0.023830      0.025165      0.029851      98.436011      103.546840
2.930000      0.003217      0.003275      0.027920      0.029236      0.033857      100.966339      105.670699
2.940000      0.003208      0.003270      0.032935      0.034245      0.038844      103.324192      107.653916
2.950000      0.003212      0.003277      0.039038      0.040354      0.044971      105.509796      109.496722
2.960000      0.003226      0.003295      0.046371      0.047699      0.052362      107.532416      111.206784
2.970000      0.003246      0.003320      0.055055      0.056401      0.061128      109.402429      112.792630
2.980000      0.003271      0.003350      0.065281      0.066650      0.071457      111.130331      114.262792
2.990000      0.003301      0.003386      0.077257      0.078653      0.083555      112.726735      115.625802
3.000000      0.003335      0.003425      0.091196      0.092624      0.097634      114.202236      116.890193
